# Created by:        SpecsLab Prodigy, Version 4.60.2-r85849 
#
# XY-Serializer Export Settings:
#   Comment Prefix:           #
#   Output meta data:         yes
#   Energy Axis:              Binding Energy
#   Count Rate:               Counts per Second
#   Separate Scan Data:       no
#   Separate Channel Data:    no
#   External Channel Data:    yes
#   Transmission Function:    no
#   ErrorBar:                 no
#   Operation Results:        yes
#   Time Zone Format:         UTC
#
# Group:             Spectrum Group
#
# Region:            Ba3d
# Acquisition Date:  04/07/22 14:00:24 UTC
# Analysis Method:   XPS
# Analyzer:          Phoibos 100 R6
# Analyzer Lens:     LargeArea:1.5kV
# Analyzer Slit:     1:0.2x20\B:open
# Scan Mode:         FixedAnalyzerTransmission
# Curves/Scan:       1
# Values/Curve:      121
# Dwell Time:        0.8
# Excitation Energy: 1486.61
# Binding Energy:    789
# Pass Energy:       30
# Bias Voltage:      90
# Detector Voltage:  2600
# Eff. Workfunction: 4.309
# Source:            X-Ray Dummy
# Comment:           
#
# Cycle: 0
# Number of Scans: 4
#
# Cycle: 0, Curve: 0
# Acquisition Date: 04/07/22 14:00:24 UTC
#
# ColumnLabels: energy counts/s
#
789  1961.25
788.9  1941.5625
788.8  1950
788.7  1944.0625
788.6  1875
788.5  1958.125
788.4  1890.625
788.3  1944.6875
788.2  1921.875
788.1  1881.5625
788  1948.4375
787.9  1906.25
787.8  1960.3125
787.7  1928.4375
787.6  1918.125
787.5  1936.875
787.4  1953.125
787.3  1941.875
787.2  1956.875
787.1  1926.875
787  1928.4375
786.9  1940.625
786.8  1922.8125
786.7  1932.5
786.6  1950.3125
786.5  1954.375
786.4  1930.625
786.3  1918.125
786.2  1935.3125
786.1  1943.125
786  1996.25
785.9  1924.375
785.8  1930.9375
785.7  1946.875
785.6  1948.75
785.5  1920.9375
785.4  1930
785.3  1940.625
785.2  1935
785.1  1942.1875
785  1913.75
784.9  1909.375
784.8  1904.375
784.7  1914.375
784.6  1900.625
784.5  1952.8125
784.4  1965
784.3  1939.6875
784.2  1940.9375
784.1  1960.3125
784  1935
783.9  1887.8125
783.8  1928.4375
783.7  1942.5
783.6  1937.1875
783.5  1967.1875
783.4  1905.625
783.3  1904.0625
783.2  1929.0625
783.1  1933.125
783  1959.0625
782.9  1930.3125
782.8  1944.375
782.7  1977.8125
782.6  1943.125
782.5  1912.5
782.4  1925.625
782.3  1919.0625
782.2  1931.875
782.1  1923.125
782  1934.0625
781.9  1921.25
781.8  1961.5625
781.7  1885.625
781.6  1915.3125
781.5  1917.5
781.4  1877.5
781.3  1930
781.2  1959.375
781.1  1938.4375
781  1951.25
780.9  1978.125
780.8  1916.25
780.7  1936.5625
780.6  1897.5
780.5  1923.125
780.4  1912.1875
780.3  1827.8125
780.2  1925
780.1  1945.3125
780  1970
779.9  1932.5
779.8  1925.625
779.7  1848.4375
779.6  1900.3125
779.5  1958.4375
779.4  1936.875
779.3  1880.3125
779.2  1920
779.1  1924.0625
779  1891.875
778.9  1927.1875
778.8  1887.5
778.7  1938.4375
778.6  1887.8125
778.5  1906.875
778.4  1925
778.3  1970
778.2  1920.3125
778.1  1915
778  1877.1875
777.9  1923.125
777.8  1931.875
777.7  1904.6875
777.6  1894.0625
777.5  1904.0625
777.4  1894.0625
777.3  1921.875
777.2  1931.5625
777.1  1907.5
777  1898.125

# Region:            overview
# Acquisition Date:  04/07/22 13:17:25 UTC
# Analysis Method:   XPS
# Analyzer:          Phoibos 100 R6
# Analyzer Lens:     MediumArea:1.5kV
# Analyzer Slit:     1:0.2x20\B:open
# Scan Mode:         FixedAnalyzerTransmission
# Curves/Scan:       1
# Values/Curve:      1205
# Dwell Time:        0.2
# Excitation Energy: 1486.61
# Binding Energy:    1200
# Pass Energy:       50
# Bias Voltage:      90
# Detector Voltage:  2600
# Eff. Workfunction: 4.309
# Source:            X-Ray Dummy
# Comment:           
#
# Cycle: 0
# Number of Scans: 1
#
# Cycle: 0, Curve: 0
# Acquisition Date: 04/07/22 13:17:25 UTC
#
# ColumnLabels: energy counts/s
#
1200  2920
1199  2985
1198  3075
1197  3005
1196  3210
1195  3100
1194  2870
1193  3030
1192  3110
1191  2780
1190  3145
1189  2930
1188  3075
1187  3005
1186  2915
1185  2925
1184  2845
1183  2770
1182  2720
1181  2840
1180  2685
1179  2725
1178  2985
1177  2770
1176  2815
1175  2955
1174  2740
1173  2615
1172  2895
1171  2880
1170  2895
1169  2640
1168  2675
1167  2780
1166  2565
1165  2715
1164  2660
1163  2585
1162  2465
1161  2785
1160  2680
1159  2450
1158  2705
1157  2670
1156  2700
1155  2505
1154  2740
1153  2510
1152  2460
1151  2615
1150  2510
1149  2825
1148  2485
1147  2645
1146  2575
1145  2610
1144  2540
1143  2515
1142  2505
1141  2725
1140  2630
1139  2595
1138  2660
1137  2525
1136  2495
1135  2520
1134  2620
1133  2830
1132  2610
1131  2620
1130  2460
1129  2550
1128  2495
1127  2725
1126  2525
1125  2445
1124  2660
1123  2565
1122  2835
1121  2690
1120  2450
1119  2680
1118  2345
1117  2475
1116  2615
1115  2675
1114  2750
1113  2490
1112  2295
1111  2765
1110  2540
1109  2690
1108  2560
1107  2640
1106  2495
1105  2335
1104  2400
1103  2585
1102  2475
1101  2475
1100  2555
1099  2510
1098  2425
1097  2380
1096  2435
1095  2270
1094  2470
1093  2260
1092  2490
1091  2480
1090  2540
1089  2325
1088  2310
1087  2400
1086  2625
1085  2465
1084  2455
1083  2485
1082  2460
1081  2710
1080  2570
1079  2715
1078  2560
1077  2625
1076  2490
1075  2545
1074  2600
1073  2600
1072  2345
1071  2450
1070  2455
1069  2380
1068  2585
1067  2405
1066  2340
1065  2515
1064  2570
1063  2290
1062  2430
1061  2215
1060  2445
1059  2420
1058  2320
1057  2675
1056  2515
1055  2375
1054  2295
1053  2480
1052  2295
1051  2335
1050  2500
1049  2335
1048  2380
1047  2515
1046  2555
1045  2420
1044  2490
1043  2295
1042  2575
1041  2290
1040  2380
1039  2400
1038  2475
1037  2445
1036  2315
1035  2390
1034  2235
1033  2660
1032  2320
1031  2380
1030  2335
1029  2305
1028  2630
1027  2280
1026  2490
1025  2425
1024  2485
1023  2510
1022  2435
1021  2280
1020  2555
1019  2425
1018  2460
1017  2450
1016  2340
1015  2240
1014  2355
1013  2355
1012  2345
1011  2195
1010  2540
1009  2500
1008  2495
1007  2360
1006  2450
1005  2480
1004  2550
1003  2445
1002  2300
1001  2460
1000  2450
999  2145
998  2460
997  2115
996  2435
995  1990
994  2055
993  1840
992  2165
991  2000
990  2145
989  2090
988  2035
987  1990
986  2405
985  2540
984  2630
983  2665
982  2535
981  2635
980  2360
979  2185
978  2255
977  2215
976  1835
975  1840
974  2025
973  1815
972  1745
971  1650
970  1685
969  1600
968  1405
967  1525
966  1370
965  1535
964  1450
963  1425
962  1530
961  1315
960  1460
959  1410
958  1395
957  1510
956  1455
955  1420
954  1510
953  1430
952  1460
951  1255
950  1490
949  1545
948  1370
947  1385
946  1420
945  1515
944  1285
943  1455
942  1485
941  1345
940  1565
939  1490
938  1470
937  1430
936  1450
935  1545
934  1580
933  1515
932  1380
931  1545
930  1400
929  1380
928  1555
927  1405
926  1235
925  1460
924  1620
923  1410
922  1465
921  1435
920  1515
919  1560
918  1340
917  1500
916  1430
915  1505
914  1605
913  1405
912  1430
911  1575
910  1440
909  1430
908  1330
907  1380
906  1540
905  1490
904  1545
903  1455
902  1460
901  1400
900  1410
899  1475
898  1425
897  1515
896  1515
895  1500
894  1480
893  1460
892  1235
891  1515
890  1575
889  1535
888  1580
887  1325
886  1340
885  1585
884  1415
883  1465
882  1495
881  1425
880  1540
879  1325
878  1500
877  1485
876  1410
875  1440
874  1420
873  1405
872  1505
871  1535
870  1285
869  1385
868  1640
867  1435
866  1565
865  1475
864  1565
863  1525
862  1515
861  1580
860  1345
859  1490
858  1510
857  1360
856  1325
855  1575
854  1415
853  1475
852  1390
851  1715
850  1340
849  1425
848  1580
847  1565
846  1555
845  1450
844  1540
843  1440
842  1395
841  1540
840  1320
839  1430
838  1370
837  1385
836  1555
835  1580
834  1565
833  1405
832  1330
831  1495
830  1645
829  1460
828  1545
827  1505
826  1320
825  1440
824  1560
823  1385
822  1425
821  1340
820  1500
819  1420
818  1500
817  1555
816  1535
815  1545
814  1415
813  1325
812  1560
811  1345
810  1635
809  1485
808  1510
807  1525
806  1460
805  1555
804  1540
803  1610
802  1520
801  1540
800  1450
799  1560
798  1745
797  1510
796  1605
795  1480
794  1510
793  1670
792  1610
791  1485
790  1395
789  1475
788  1690
787  1460
786  1490
785  1480
784  1620
783  1500
782  1570
781  1390
780  1505
779  1565
778  1500
777  1505
776  1640
775  1460
774  1610
773  1630
772  1595
771  1485
770  1650
769  1625
768  1525
767  1585
766  1610
765  1650
764  1640
763  1390
762  1540
761  1570
760  1675
759  1785
758  1545
757  1625
756  1490
755  1655
754  1735
753  1685
752  1645
751  1480
750  1580
749  1660
748  1665
747  1560
746  1615
745  1730
744  1705
743  1625
742  1565
741  1670
740  1645
739  1475
738  1520
737  1530
736  1605
735  1690
734  1640
733  1645
732  1595
731  1560
730  1575
729  1460
728  1535
727  1545
726  1750
725  1515
724  1635
723  1535
722  1705
721  1580
720  1560
719  1775
718  1665
717  1575
716  1740
715  1695
714  1580
713  1570
712  1590
711  1650
710  1595
709  1450
708  1535
707  1670
706  1620
705  1720
704  1485
703  1760
702  1675
701  1580
700  1640
699  1715
698  1610
697  1560
696  1555
695  1740
694  1785
693  1880
692  1690
691  1850
690  1640
689  1680
688  1640
687  1905
686  1715
685  1620
684  1785
683  1870
682  1540
681  1685
680  1595
679  1770
678  1700
677  1805
676  1550
675  1740
674  1780
673  1640
672  1650
671  1760
670  1645
669  1815
668  1920
667  1700
666  1745
665  1720
664  1740
663  1675
662  1725
661  1795
660  1870
659  1775
658  1835
657  1860
656  1600
655  1750
654  1630
653  1810
652  1535
651  1870
650  1745
649  1710
648  1775
647  1905
646  1630
645  1590
644  1820
643  1750
642  1720
641  1885
640  1880
639  1890
638  1775
637  1790
636  1825
635  1820
634  1955
633  1970
632  1700
631  1915
630  1770
629  1935
628  1825
627  1975
626  1795
625  1670
624  1985
623  1880
622  1875
621  1750
620  1830
619  1710
618  1865
617  1755
616  1880
615  1950
614  2090
613  2090
612  1955
611  1925
610  1915
609  1955
608  1945
607  2110
606  1900
605  2065
604  1905
603  1815
602  1935
601  1855
600  1970
599  1905
598  1945
597  1940
596  2000
595  1940
594  1990
593  1920
592  1915
591  1985
590  2020
589  1895
588  2015
587  1875
586  1940
585  1970
584  1970
583  1805
582  1865
581  1845
580  1815
579  1880
578  2025
577  1895
576  2025
575  2060
574  1880
573  1800
572  1875
571  1840
570  1825
569  1845
568  1910
567  2075
566  1885
565  2150
564  1940
563  2070
562  2185
561  2360
560  2075
559  2290
558  2300
557  2315
556  2240
555  2070
554  1840
553  1875
552  1750
551  1755
550  1630
549  1620
548  1555
547  1360
546  1410
545  1020
544  1290
543  1200
542  1075
541  1130
540  1225
539  1340
538  1595
537  2740
536  6490
535  8135
534  4710
533  2175
532  1170
531  1070
530  960
529  1060
528  1145
527  1095
526  1290
525  1375
524  1485
523  1125
522  1060
521  965
520  850
519  820
518  930
517  825
516  900
515  865
514  880
513  915
512  750
511  805
510  900
509  720
508  850
507  865
506  900
505  855
504  785
503  820
502  995
501  820
500  1015
499  965
498  815
497  740
496  780
495  885
494  875
493  790
492  820
491  790
490  740
489  710
488  735
487  810
486  775
485  855
484  830
483  760
482  790
481  860
480  865
479  800
478  815
477  815
476  770
475  815
474  885
473  770
472  1000
471  705
470  730
469  975
468  795
467  765
466  860
465  975
464  980
463  870
462  840
461  775
460  810
459  840
458  880
457  855
456  860
455  840
454  905
453  765
452  705
451  860
450  935
449  785
448  795
447  755
446  815
445  735
444  775
443  825
442  725
441  720
440  765
439  945
438  855
437  775
436  750
435  795
434  885
433  630
432  790
431  875
430  745
429  785
428  790
427  780
426  710
425  820
424  880
423  790
422  805
421  850
420  755
419  840
418  770
417  750
416  840
415  705
414  745
413  850
412  715
411  755
410  705
409  735
408  750
407  775
406  805
405  810
404  945
403  920
402  800
401  835
400  760
399  705
398  865
397  875
396  810
395  820
394  755
393  785
392  900
391  825
390  735
389  800
388  790
387  825
386  870
385  860
384  785
383  700
382  790
381  825
380  755
379  735
378  830
377  820
376  780
375  910
374  825
373  730
372  750
371  800
370  985
369  865
368  910
367  830
366  860
365  770
364  865
363  770
362  815
361  800
360  790
359  800
358  840
357  875
356  830
355  885
354  930
353  785
352  865
351  980
350  835
349  815
348  860
347  935
346  840
345  935
344  965
343  930
342  780
341  820
340  960
339  805
338  890
337  820
336  945
335  785
334  915
333  895
332  880
331  870
330  780
329  735
328  975
327  875
326  890
325  830
324  825
323  990
322  845
321  900
320  945
319  815
318  975
317  810
316  945
315  1000
314  835
313  975
312  905
311  925
310  945
309  855
308  820
307  895
306  855
305  860
304  885
303  875
302  915
301  890
300  850
299  960
298  920
297  745
296  865
295  890
294  935
293  955
292  885
291  970
290  1325
289  1645
288  2015
287  1700
286  1285
285  815
284  800
283  705
282  955
281  980
280  970
279  895
278  955
277  875
276  855
275  920
274  760
273  860
272  810
271  750
270  740
269  815
268  810
267  820
266  925
265  795
264  705
263  705
262  845
261  1035
260  725
259  855
258  820
257  935
256  830
255  750
254  785
253  895
252  730
251  765
250  870
249  790
248  855
247  815
246  950
245  710
244  835
243  830
242  825
241  860
240  725
239  840
238  760
237  945
236  740
235  865
234  715
233  880
232  880
231  890
230  875
229  935
228  815
227  905
226  805
225  750
224  935
223  905
222  865
221  835
220  765
219  880
218  855
217  835
216  725
215  850
214  955
213  910
212  830
211  790
210  820
209  840
208  900
207  850
206  885
205  890
204  900
203  865
202  875
201  860
200  950
199  840
198  985
197  945
196  830
195  1015
194  935
193  875
192  845
191  790
190  890
189  875
188  810
187  845
186  810
185  860
184  785
183  940
182  1015
181  900
180  910
179  940
178  1015
177  910
176  855
175  850
174  865
173  660
172  990
171  820
170  820
169  760
168  760
167  830
166  760
165  715
164  750
163  640
162  855
161  740
160  870
159  990
158  1690
157  2020
156  1555
155  1170
154  855
153  840
152  655
151  700
150  685
149  810
148  750
147  710
146  640
145  755
144  745
143  685
142  675
141  720
140  685
139  605
138  690
137  665
136  630
135  650
134  710
133  665
132  670
131  605
130  715
129  740
128  740
127  765
126  740
125  725
124  730
123  645
122  700
121  700
120  745
119  630
118  615
117  555
116  465
115  550
114  525
113  485
112  555
111  565
110  535
109  580
108  680
107  1345
106  1730
105  1490
104  740
103  510
102  460
101  475
100  485
99  530
98  545
97  470
96  540
95  575
94  590
93  455
92  550
91  380
90  430
89  440
88  445
87  480
86  465
85  420
84  430
83  370
82  580
81  395
80  435
79  425
78  440
77  510
76  405
75  545
74  475
73  480
72  535
71  505
70  455
69  390
68  540
67  445
66  520
65  575
64  440
63  450
62  520
61  485
60  525
59  420
58  500
57  495
56  390
55  445
54  440
53  480
52  475
51  470
50  535
49  445
48  430
47  440
46  480
45  535
44  475
43  470
42  400
41  475
40  440
39  460
38  470
37  475
36  490
35  460
34  475
33  430
32  425
31  575
30  595
29  545
28  655
27  715
26  615
25  395
24  510
23  455
22  365
21  355
20  445
19  440
18  470
17  445
16  415
15  400
14  455
13  495
12  400
11  440
10  395
9  465
8  550
7  430
6  375
5  380
4  375
3  495
2  440
1  390
-2.2737368e-013  335
-1  385
-2  410
-3  315
-4  420

# Region:            C1s
# Acquisition Date:  04/07/22 15:18:51 UTC
# Analysis Method:   XPS
# Analyzer:          Phoibos 100 R6
# Analyzer Lens:     LargeArea:1.5kV
# Analyzer Slit:     1:0.2x20\B:open
# Scan Mode:         FixedAnalyzerTransmission
# Curves/Scan:       1
# Values/Curve:      151
# Dwell Time:        0.8
# Excitation Energy: 1486.61
# Binding Energy:    295
# Pass Energy:       30
# Bias Voltage:      90
# Detector Voltage:  2600
# Eff. Workfunction: 4.309
# Source:            X-Ray Dummy
# Comment:           
#
# Cycle: 0
# Number of Scans: 20
#
# Cycle: 0, Curve: 0
# Acquisition Date: 04/07/22 15:18:51 UTC
#
# ColumnLabels: energy counts/s
#
295  679.625
294.9  670.8125
294.8  678
294.7  676.25
294.6  663.375
294.5  668.4375
294.4  665
294.3  667.9375
294.2  669.0625
294.1  678.5625
294  668.625
293.9  684.4375
293.8  679.8125
293.7  683.375
293.6  684.3125
293.5  674.9375
293.4  689.8125
293.3  675.375
293.2  678.9375
293.1  681.75
293  675.8125
292.9  688.3125
292.8  689.4375
292.7  691.6875
292.6  694.3125
292.5  706
292.4  707.5625
292.3  710.75
292.2  719.125
292.1  716.25
292  715.4375
291.9  720.125
291.8  733.25
291.7  751.875
291.6  740.5
291.5  745.875
291.4  757.4375
291.3  760.1875
291.2  774.125
291.1  764.3125
291  777.75
290.9  791.6875
290.8  795.5625
290.7  817.125
290.6  816.0625
290.5  825.5625
290.4  842.375
290.3  852
290.2  872.5
290.1  907.3125
290  897.4375
289.9  912.1875
289.8  946.375
289.7  964.625
289.6  985.25
289.5  1004.4375
289.4  1024.75
289.3  1111.0625
289.2  1070.875
289.1  1113.5
289  1150.875
288.9  1175.125
288.8  1200
288.7  1218.875
288.6  1237.0625
288.5  1278.4375
288.4  1320.0625
288.3  1324.5
288.2  1371
288.1  1395.875
288  1413.3125
287.9  1442.125
287.8  1440.8125
287.7  1449.4375
287.6  1457.3125
287.5  1451.6875
287.4  1448.0625
287.3  1444.6875
287.2  1386.25
287.1  1358.9375
287  1321.125
286.9  1276.75
286.8  1224.5625
286.7  1174.4375
286.6  1111.5
286.5  1061.25
286.4  1010.625
286.3  959
286.2  910.1875
286.1  880.8125
286  843.0625
285.9  820.0625
285.8  791.3125
285.7  763.6875
285.6  753.25
285.5  729.75
285.4  714.5
285.3  716.875
285.2  705.3125
285.1  694
285  663.875
284.9  679.4375
284.8  663.75
284.7  653.9375
284.6  658.0625
284.5  662.5
284.4  652.375
284.3  655.75
284.2  659.75
284.1  636.25
284  641.625
283.9  684.625
283.8  646.25
283.7  649.25
283.6  632.875
283.5  640.6875
283.4  639.25
283.3  646.125
283.2  630.1875
283.1  646.75
283  645.25
282.9  640.0625
282.8  652.5625
282.7  644.625
282.6  640.5
282.5  650.625
282.4  652.4375
282.3  650.375
282.2  635
282.1  641.0625
282  636.625
281.9  645.4375
281.8  643.1875
281.7  655.25
281.6  639.8125
281.5  645.3125
281.4  646.8125
281.3  656.5625
281.2  646.125
281.1  647.8125
281  637.5625
280.9  655.1875
280.8  653.0625
280.7  647.1875
280.6  649.5
280.5  639.4375
280.4  654.75
280.3  645.0625
280.2  641.375
280.1  659.1875
280  658.0625

# Region:            O1s
# Acquisition Date:  04/07/22 14:44:38 UTC
# Analysis Method:   XPS
# Analyzer:          Phoibos 100 R6
# Analyzer Lens:     LargeArea:1.5kV
# Analyzer Slit:     1:0.2x20\B:open
# Scan Mode:         FixedAnalyzerTransmission
# Curves/Scan:       1
# Values/Curve:      141
# Dwell Time:        0.8
# Excitation Energy: 1486.61
# Binding Energy:    541
# Pass Energy:       30
# Bias Voltage:      90
# Detector Voltage:  2600
# Eff. Workfunction: 4.309
# Source:            X-Ray Dummy
# Comment:           
#
# Cycle: 0
# Number of Scans: 10
#
# Cycle: 0, Curve: 0
# Acquisition Date: 04/07/22 14:44:38 UTC
#
# ColumnLabels: energy counts/s
#
541  1042.75
540.9  1049.625
540.8  1037.75
540.7  1056.75
540.6  1051.875
540.5  1063.125
540.4  1057.5
540.3  1070.875
540.2  1065.75
540.1  1067.25
540  1084.75
539.9  1087.75
539.8  1099.25
539.7  1098.5
539.6  1113.625
539.5  1116
539.4  1105.125
539.3  1161.875
539.2  1142.125
539.1  1146.75
539  1165.875
538.9  1164.75
538.8  1205
538.7  1198.25
538.6  1225.125
538.5  1259.5
538.4  1232.75
538.3  1266.875
538.2  1304.25
538.1  1321.875
538  1359.5
537.9  1399.875
537.8  1426.625
537.7  1506.125
537.6  1583.625
537.5  1639.125
537.4  1758.5
537.3  1860
537.2  2016.25
537.1  2139.25
537  2316.625
536.9  2535.375
536.8  2786.875
536.7  3043.625
536.6  3378.375
536.5  3713.75
536.4  4128.5
536.3  4509.5
536.2  4939.875
536.1  5394.25
536  5806
535.9  6304.125
535.8  6735
535.7  7072.25
535.6  7359.5
535.5  7760.375
535.4  7969.25
535.3  7989.375
535.2  7986.875
535.1  8018.375
535  7828.75
534.9  7611.625
534.8  7323.125
534.7  6932.375
534.6  6503.125
534.5  6015.625
534.4  5545.25
534.3  5122
534.2  4619.75
534.1  4153.875
534  3792.5
533.9  3386.5
533.8  3038.25
533.7  2754.25
533.6  2478
533.5  2264.625
533.4  2070.375
533.3  1919.25
533.2  1779.125
533.1  1667.75
533  1545.5
532.9  1454
532.8  1400.125
532.7  1374.5
532.6  1278.5
532.5  1251.5
532.4  1223.875
532.3  1171.375
532.2  1160.375
532.1  1152.125
532  1079.75
531.9  1064.125
531.8  1044.375
531.7  1058.5
531.6  1023.25
531.5  1030.625
531.4  1021
531.3  1025.375
531.2  999.625
531.1  1016.375
531  989.5
530.9  997.375
530.8  989.125
530.7  994.75
530.6  960.375
530.5  970.125
530.4  959
530.3  921.375
530.2  963
530.1  944.5
530  931.375
529.9  924.625
529.8  924.75
529.7  924
529.6  918
529.5  899.5
529.4  908.75
529.3  939.625
529.2  902
529.1  889.125
529  906.75
528.9  904.875
528.8  905.125
528.7  895.75
528.6  905.75
528.5  880.125
528.4  891.5
528.3  905.375
528.2  891.875
528.1  880
528  892.625
527.9  900.375
527.8  912.75
527.7  903.5
527.6  908.375
527.5  926
527.4  915
527.3  928.125
527.2  941.5
527.1  983.5
527  975.375

# Region:            N1s (3)
# Acquisition Date:  04/07/22 13:23:00 UTC
# Analysis Method:   XPS
# Analyzer:          Phoibos 100 R6
# Analyzer Lens:     LargeArea:1.5kV
# Analyzer Slit:     1:0.2x20\B:open
# Scan Mode:         FixedAnalyzerTransmission
# Curves/Scan:       1
# Values/Curve:      101
# Dwell Time:        0.8
# Excitation Energy: 1486.61
# Binding Energy:    405
# Pass Energy:       30
# Bias Voltage:      90
# Detector Voltage:  2600
# Eff. Workfunction: 4.309
# Source:            X-Ray Dummy
# Comment:           
#
# Cycle: 0
# Number of Scans: 1
#
# Cycle: 0, Curve: 0
# Acquisition Date: 04/07/22 13:23:00 UTC
#
# ColumnLabels: energy counts/s
#
405  643.75
404.9  705
404.8  702.5
404.7  687.5
404.6  717.5
404.5  736.25
404.4  640
404.3  675
404.2  715
404.1  766.25
404  692.5
403.9  800
403.8  723.75
403.7  736.25
403.6  763.75
403.5  737.5
403.4  802.5
403.3  786.25
403.2  731.25
403.1  781.25
403  766.25
402.9  735
402.8  827.5
402.7  832.5
402.6  750
402.5  755
402.4  828.75
402.3  785
402.2  762.5
402.1  806.25
402  740
401.9  850
401.8  760
401.7  730
401.6  720
401.5  775
401.4  735
401.3  707.5
401.2  707.5
401.1  697.5
401  703.75
400.9  781.25
400.8  735
400.7  743.75
400.6  650
400.5  731.25
400.4  651.25
400.3  672.5
400.2  703.75
400.1  623.75
400  677.5
399.9  683.75
399.8  662.5
399.7  670
399.6  653.75
399.5  695
399.4  705
399.3  665
399.2  736.25
399.1  643.75
399  651.25
398.9  643.75
398.8  653.75
398.7  671.25
398.6  675
398.5  698.75
398.4  715
398.3  611.25
398.2  666.25
398.1  693.75
398  660
397.9  686.25
397.8  652.5
397.7  693.75
397.6  691.25
397.5  663.75
397.4  645
397.3  640
397.2  677.5
397.1  658.75
397  618.75
396.9  633.75
396.8  666.25
396.7  633.75
396.6  690
396.5  658.75
396.4  696.25
396.3  635
396.2  697.5
396.1  662.5
396  672.5
395.9  698.75
395.8  618.75
395.7  658.75
395.6  688.75
395.5  682.5
395.4  663.75
395.3  665
395.2  680
395.1  658.75
395  638.75

# Operation:         N1s
# Parameter: "Transition" = N1s
# Parameter: "Label" = 
# Parameter: "Background Method" = Tougaard
# Parameter: "Peak Shape" = Voigt
# Parameter: "Asymmetric Peak" = false
# Parameter: "FWHM-Annotation" = S-B = <Signal-BG:@>\nFWHM = <FWHM:@>\nArea = <Area:@>
# Parameter: "Peak-Annotation" = <Label>\n<Transition>\nE = <Center:@>
#
# Result:
# Number of Results: 2
# Parameter: "Transition" = N1s
# Parameter: "Label" = 
# Parameter: "Center" = 402.59551493046001 eV +- 0.092609514093737744
# Parameter: "Area" = 399.94655352751528 cps eV +- 144.35019714266633
# Parameter: "FWHM Lorentzian" = 0.50483847740926313 eV +- 1.9650673669334551
# Parameter: "FWHM Gaussian" = 2.5276030326344525 eV +- 1.2053895454964971
# Parameter: "Asymmetry" = 0 +- 0
# Parameter: "Tougaard B" = 0 eV^2 +- 0
# Parameter: "Tougaard C" = 1643 eV^2 +- 0
# Parameter: "FWHM" = 2.8083861159335268 eV
# Parameter: "Offset (0th order)" = 663.23645245736407 cps +- 7.9813654279519142
# Parameter: "Abbe factor" = 1.1760949494597936
# Parameter: "Reduced Chi Square" = 1.1227104848870886
# Parameter: "Q Probability" = 0.1956425317323294
# Parameter: "Number of performed iterations" = 15
# Parameter: "Fit termination reason" = ConvergedInChi
# Parameter: "Signal" = 787.6413157071371 cps
# Parameter: "Signal-BG" = 124.40486324977294 cps
#
# Result Name:       Background
# Number of Curves:  1
#
# Curve:             0
# Values/Curve:      73
#
405  663.23645
404.86111  663.23645
404.72222  663.23645
404.58333  663.23645
404.44444  663.23645
404.30556  663.23645
404.16667  663.23645
404.02778  663.23645
403.88889  663.23645
403.75  663.23645
403.61111  663.23645
403.47222  663.23645
403.33333  663.23645
403.19444  663.23645
403.05556  663.23645
402.91667  663.23645
402.77778  663.23645
402.63889  663.23645
402.5  663.23645
402.36111  663.23645
402.22222  663.23645
402.08333  663.23645
401.94444  663.23645
401.80556  663.23645
401.66667  663.23645
401.52778  663.23645
401.38889  663.23645
401.25  663.23645
401.11111  663.23645
400.97222  663.23645
400.83333  663.23645
400.69444  663.23645
400.55556  663.23645
400.41667  663.23645
400.27778  663.23645
400.13889  663.23645
400  663.23645
399.86111  663.23645
399.72222  663.23645
399.58333  663.23645
399.44444  663.23645
399.30556  663.23645
399.16667  663.23645
399.02778  663.23645
398.88889  663.23645
398.75  663.23645
398.61111  663.23645
398.47222  663.23645
398.33333  663.23645
398.19444  663.23645
398.05556  663.23645
397.91667  663.23645
397.77778  663.23645
397.63889  663.23645
397.5  663.23645
397.36111  663.23645
397.22222  663.23645
397.08333  663.23645
396.94444  663.23645
396.80556  663.23645
396.66667  663.23645
396.52778  663.23645
396.38889  663.23645
396.25  663.23645
396.11111  663.23645
395.97222  663.23645
395.83333  663.23645
395.69444  663.23645
395.55556  663.23645
395.41667  663.23645
395.27778  663.23645
395.13889  663.23645
395  663.23645

# Result Name:       Peak Fit
# Number of Curves:  1
#
# Curve:             0
# Values/Curve:      73
#
405  681.93633
404.86111  685.81162
404.72222  690.36793
404.58333  695.64509
404.44444  701.65843
404.30556  708.39148
404.16667  715.78937
404.02778  723.75393
403.88889  732.14122
403.75  740.76238
403.61111  749.38821
403.47222  757.75773
403.33333  765.59043
403.19444  772.60163
403.05556  778.51967
402.91667  783.10368
402.77778  786.16018
402.63889  787.55693
402.5  787.23267
402.36111  785.20167
402.22222  781.55267
402.08333  776.44228
401.94444  770.08357
401.80556  762.73103
401.66667  754.66328
401.52778  746.16539
401.38889  737.5122
401.25  728.95399
401.11111  720.70561
400.97222  712.93939
400.83333  705.78199
400.69444  699.31489
400.55556  693.57786
400.41667  688.5746
400.27778  684.27969
400.13889  680.64608
400  677.61229
399.86111  675.10895
399.72222  673.06426
399.58333  671.40821
399.44444  670.07557
399.30556  669.00776
399.16667  668.15379
399.02778  667.47041
398.88889  666.92182
398.75  666.47894
398.61111  666.11855
398.47222  665.82242
398.33333  665.57638
398.19444  665.36954
398.05556  665.19356
397.91667  665.04211
397.77778  664.91035
397.63889  664.79459
397.5  664.69201
397.36111  664.60042
397.22222  664.51808
397.08333  664.44365
396.94444  664.37603
396.80556  664.31434
396.66667  664.25783
396.52778  664.2059
396.38889  664.15803
396.25  664.11378
396.11111  664.07278
395.97222  664.0347
395.83333  663.99926
395.69444  663.9662
395.55556  663.93532
395.41667  663.90642
395.27778  663.87933
395.13889  663.85389
395  663.82997

# Region:            Cl2p
# Acquisition Date:  04/07/22 14:17:59 UTC
# Analysis Method:   XPS
# Analyzer:          Phoibos 100 R6
# Analyzer Lens:     LargeArea:1.5kV
# Analyzer Slit:     1:0.2x20\B:open
# Scan Mode:         FixedAnalyzerTransmission
# Curves/Scan:       1
# Values/Curve:      111
# Dwell Time:        0.8
# Excitation Energy: 1486.61
# Binding Energy:    207
# Pass Energy:       30
# Bias Voltage:      90
# Detector Voltage:  2600
# Eff. Workfunction: 4.309
# Source:            X-Ray Dummy
# Comment:           
#
# Cycle: 0
# Number of Scans: 5
#
# Cycle: 0, Curve: 0
# Acquisition Date: 04/07/22 14:17:59 UTC
#
# ColumnLabels: energy counts/s
#
207  617
206.9  587.75
206.8  598
206.7  611.5
206.6  598.75
206.5  614.75
206.4  625.5
206.3  600.25
206.2  594.25
206.1  615
206  607.75
205.9  613.75
205.8  595.75
205.7  602.75
205.6  601.75
205.5  587.75
205.4  625.5
205.3  612.25
205.2  608
205.1  608
205  624.75
204.9  609.75
204.8  606.25
204.7  614.25
204.6  590.5
204.5  600
204.4  607.5
204.3  590.25
204.2  620.5
204.1  610.25
204  591.75
203.9  596.75
203.8  610
203.7  587.75
203.6  615.75
203.5  607.75
203.4  612
203.3  608.5
203.2  605.5
203.1  614
203  595.75
202.9  638
202.8  599.5
202.7  600.25
202.6  609
202.5  631
202.4  615
202.3  602.5
202.2  607.25
202.1  607.75
202  601.25
201.9  612.75
201.8  606.25
201.7  606
201.6  613.25
201.5  606.5
201.4  605.75
201.3  593.5
201.2  625.75
201.1  592.75
201  625.25
200.9  607.5
200.8  623.25
200.7  606.75
200.6  642.5
200.5  625
200.4  606.25
200.3  618.75
200.2  595
200.1  624.75
200  605.5
199.9  602.25
199.8  601
199.7  616.25
199.6  607.75
199.5  606.25
199.4  607.5
199.3  598.5
199.2  611.25
199.1  595.5
199  607.5
198.9  626.25
198.8  615.5
198.7  621.75
198.6  580.25
198.5  606
198.4  602.75
198.3  598.75
198.2  612.5
198.1  629.25
198  588.5
197.9  593.25
197.8  624.5
197.7  596.5
197.6  579
197.5  621.75
197.4  610.75
197.3  592.75
197.2  614.25
197.1  603.25
197  603
196.9  642
196.8  615.5
196.7  610.25
196.6  598.25
196.5  590
196.4  605.75
196.3  587
196.2  610
196.1  593
196  601

# Region:            Si2p (2)
# Acquisition Date:  04/07/22 14:11:09 UTC
# Analysis Method:   XPS
# Analyzer:          Phoibos 100 R6
# Analyzer Lens:     LargeArea:1.5kV
# Analyzer Slit:     1:0.2x20\B:open
# Scan Mode:         FixedAnalyzerTransmission
# Curves/Scan:       1
# Values/Curve:      391
# Dwell Time:        0.8
# Excitation Energy: 1486.61
# Binding Energy:    128
# Pass Energy:       30
# Bias Voltage:      90
# Detector Voltage:  2600
# Eff. Workfunction: 4.309
# Source:            X-Ray Dummy
# Comment:           
#
# Cycle: 0
# Number of Scans: 4
#
# Cycle: 0, Curve: 0
# Acquisition Date: 04/07/22 14:11:09 UTC
#
# ColumnLabels: energy counts/s
#
128  486.5625
127.9  495.625
127.8  505.9375
127.7  477.5
127.6  500.9375
127.5  478.125
127.4  503.125
127.3  496.5625
127.2  454.0625
127.1  470.9375
127  485.9375
126.9  507.1875
126.8  488.75
126.7  480.3125
126.6  490.9375
126.5  486.875
126.4  486.5625
126.3  477.5
126.2  490
126.1  495.3125
126  507.1875
125.9  470.9375
125.8  485
125.7  504.6875
125.6  476.25
125.5  501.5625
125.4  478.125
125.3  472.5
125.2  471.25
125.1  484.0625
125  488.125
124.9  475.3125
124.8  482.1875
124.7  477.8125
124.6  462.1875
124.5  492.1875
124.4  481.5625
124.3  456.25
124.2  476.5625
124.1  454.6875
124  471.875
123.9  464.0625
123.8  469.0625
123.7  475.625
123.6  460
123.5  448.75
123.4  433.75
123.3  457.8125
123.2  467.8125
123.1  441.25
123  466.25
122.9  443.4375
122.8  447.5
122.7  444.375
122.6  439.0625
122.5  460.3125
122.4  434.6875
122.3  472.5
122.2  458.75
122.1  459.0625
122  451.875
121.9  417.8125
121.8  450.3125
121.7  436.25
121.6  446.5625
121.5  445.625
121.4  431.25
121.3  441.25
121.2  440
121.1  433.75
121  444.6875
120.9  440.3125
120.8  429.0625
120.7  423.125
120.6  437.1875
120.5  416.5625
120.4  435
120.3  435.3125
120.2  451.5625
120.1  435
120  407.1875
119.9  415.3125
119.8  414.6875
119.7  432.5
119.6  412.5
119.5  412.5
119.4  435.3125
119.3  415.3125
119.2  422.8125
119.1  432.5
119  413.125
118.9  434.6875
118.8  400.9375
118.7  410.3125
118.6  413.125
118.5  410.3125
118.4  415.3125
118.3  423.4375
118.2  415.625
118.1  411.25
118  402.5
117.9  412.1875
117.8  399.6875
117.7  397.1875
117.6  384.6875
117.5  463.4375
117.4  399.375
117.3  382.1875
117.2  402.8125
117.1  381.25
117  387.8125
116.9  394.6875
116.8  388.4375
116.7  384.375
116.6  370
116.5  383.125
116.4  372.8125
116.3  372.1875
116.2  370.625
116.1  381.875
116  389.0625
115.9  373.4375
115.8  370.9375
115.7  399.0625
115.6  380.3125
115.5  358.4375
115.4  354.0625
115.3  373.125
115.2  378.125
115.1  372.1875
115  360.625
114.9  372.8125
114.8  363.4375
114.7  350.625
114.6  356.25
114.5  366.5625
114.4  344.6875
114.3  342.8125
114.2  356.875
114.1  348.4375
114  367.1875
113.9  350.625
113.8  373.4375
113.7  360.9375
113.6  367.1875
113.5  347.5
113.4  343.125
113.3  353.4375
113.2  350.3125
113.1  330.625
113  352.1875
112.9  359.0625
112.8  365
112.7  356.25
112.6  349.375
112.5  355.625
112.4  356.5625
112.3  354.6875
112.2  360.625
112.1  344.375
112  345.9375
111.9  351.875
111.8  363.125
111.7  354.0625
111.6  356.875
111.5  353.4375
111.4  350.9375
111.3  377.5
111.2  360.9375
111.1  365.625
111  358.125
110.9  346.875
110.8  363.125
110.7  379.6875
110.6  349.6875
110.5  380.625
110.4  335.625
110.3  359.0625
110.2  367.1875
110.1  351.875
110  376.25
109.9  373.125
109.8  377.5
109.7  383.4375
109.6  365.625
109.5  372.5
109.4  391.25
109.3  390.9375
109.2  405.625
109.1  386.25
109  380
108.9  401.875
108.8  387.5
108.7  782.5
108.6  395
108.5  440.3125
108.4  415.9375
108.3  422.1875
108.2  449.0625
108.1  433.4375
108  479.0625
107.9  478.125
107.8  543.125
107.7  549.0625
107.6  599.6875
107.5  595.9375
107.4  687.8125
107.3  726.875
107.2  807.1875
107.1  864.0625
107  908.125
106.9  984.6875
106.8  1018.125
106.7  1124.375
106.6  1173.125
106.5  1258.4375
106.4  1306.875
106.3  1336.5625
106.2  1417.5
106.1  1310.9375
106  1424.375
105.9  1385
105.8  1392.8125
105.7  1406.875
105.6  1310
105.5  1302.1875
105.4  1200.625
105.3  1140
105.2  1101.25
105.1  1027.5
105  971.5625
104.9  860
104.8  795.9375
104.7  720.9375
104.6  673.75
104.5  610
104.4  614.375
104.3  533.4375
104.2  506.5625
104.1  465
104  453.125
103.9  428.75
103.8  395
103.7  416.5625
103.6  387.8125
103.5  385.9375
103.4  405.625
103.3  356.875
103.2  368.125
103.1  349.375
103  359.375
102.9  340.9375
102.8  368.75
102.7  361.5625
102.6  361.25
102.5  336.5625
102.4  358.75
102.3  353.4375
102.2  358.75
102.1  333.4375
102  347.8125
101.9  337.8125
101.8  331.25
101.7  341.875
101.6  345.9375
101.5  332.1875
101.4  358.4375
101.3  333.125
101.2  346.875
101.1  346.5625
101  350
100.9  348.4375
100.8  342.5
100.7  349.375
100.6  335.3125
100.5  333.75
100.4  345
100.3  363.125
100.2  354.6875
100.1  345.3125
100  338.125
99.9  357.8125
99.8  341.25
99.7  323.4375
99.6  336.875
99.5  331.5625
99.4  340.3125
99.3  349.6875
99.2  340.9375
99.1  332.5
99  323.125
98.9  350
98.8  335.3125
98.7  328.4375
98.6  345.9375
98.5  323.75
98.4  335.3125
98.3  333.4375
98.2  339.0625
98.1  343.75
98  326.25
97.9  360
97.8  330.9375
97.7  359.375
97.6  349.6875
97.5  361.875
97.4  367.8125
97.3  374.375
97.2  363.4375
97.1  375.3125
97  398.75
96.9  395.3125
96.8  390.9375
96.7  385.625
96.6  384.6875
96.5  407.5
96.4  392.5
96.3  411.25
96.2  417.1875
96.1  409.375
96  411.25
95.9  395.3125
95.8  396.875
95.7  405
95.6  399.375
95.5  403.125
95.4  385.625
95.3  380.9375
95.2  398.125
95.1  385.625
95  393.4375
94.9  387.1875
94.8  389.375
94.7  384.6875
94.6  376.5625
94.5  377.5
94.4  379.6875
94.3  386.5625
94.2  348.4375
94.1  356.25
94  344.6875
93.9  367.5
93.8  372.1875
93.7  348.75
93.6  354.6875
93.5  358.75
93.4  349.0625
93.3  345
93.2  358.75
93.1  323.125
93  350
92.9  524.0625
92.8  334.0625
92.7  336.25
92.6  320
92.5  326.875
92.4  336.25
92.3  318.4375
92.2  346.5625
92.1  338.75
92  338.125
91.9  336.5625
91.8  322.1875
91.7  329.375
91.6  360
91.5  356.5625
91.4  329.375
91.3  313.4375
91.2  344.375
91.1  342.8125
91  334.0625
90.9  328.125
90.8  345.9375
90.7  330.625
90.6  341.875
90.5  338.4375
90.4  334.6875
90.3  318.75
90.2  338.75
90.1  345.9375
90  331.875
89.9  338.125
89.8  330
89.7  329.375
89.6  320.3125
89.5  332.1875
89.4  330.625
89.3  318.75
89.2  319.6875
89.1  329.0625
89  336.875

# Region:            N1s
# Acquisition Date:  04/07/22 16:01:17 UTC
# Analysis Method:   XPS
# Analyzer:          Phoibos 100 R6
# Analyzer Lens:     LargeArea:1.5kV
# Analyzer Slit:     1:0.2x20\B:open
# Scan Mode:         FixedAnalyzerTransmission
# Curves/Scan:       1
# Values/Curve:      101
# Dwell Time:        0.8
# Excitation Energy: 1486.61
# Binding Energy:    407
# Pass Energy:       30
# Bias Voltage:      90
# Detector Voltage:  2600
# Eff. Workfunction: 4.309
# Source:            X-Ray Dummy
# Comment:           
#
# Cycle: 0
# Number of Scans: 50
#
# Cycle: 0, Curve: 0
# Acquisition Date: 04/07/22 16:01:17 UTC
#
# ColumnLabels: energy counts/s
#
407  683.65
406.9  684.7
406.8  686.65
406.7  678.55
406.6  682.8
406.5  682.7
406.4  687
406.3  687.425
406.2  683.475
406.1  681.15
406  686.3
405.9  688.45
405.8  682.075
405.7  686.05
405.6  688.4
405.5  685.375
405.4  680.525
405.3  692.375
405.2  691.65
405.1  695.65
405  692.45
404.9  701.175
404.8  698.1
404.7  693.95
404.6  693.55
404.5  718.3
404.4  713.25
404.3  707.9
404.2  722.525
404.1  724.925
404  716.275
403.9  727.075
403.8  726.35
403.7  736.65
403.6  741.25
403.5  752.25
403.4  747
403.3  755.45
403.2  761.95
403.1  772.475
403  770.25
402.9  785.775
402.8  786.525
402.7  780.975
402.6  790.175
402.5  790.625
402.4  782.05
402.3  782.8
402.2  781.675
402.1  787.7
402  782.3
401.9  768.1
401.8  769.525
401.7  772.4
401.6  762.525
401.5  753.4
401.4  752.725
401.3  745.85
401.2  737.55
401.1  727.675
401  719.075
400.9  720.525
400.8  712.325
400.7  700.65
400.6  705.25
400.5  695.225
400.4  699.25
400.3  683.525
400.2  695.275
400.1  676.5
400  671.275
399.9  682.7
399.8  672.175
399.7  672.675
399.6  674.5
399.5  672.725
399.4  676.175
399.3  662.2
399.2  666.8
399.1  669.15
399  667.2
398.9  670.15
398.8  670.625
398.7  671.575
398.6  663.8
398.5  672.525
398.4  671.9
398.3  675.85
398.2  666.6
398.1  667.25
398  659.925
397.9  663
397.8  663.1
397.7  667.075
397.6  661.65
397.5  670.25
397.4  671.9
397.3  662.425
397.2  655.95
397.1  666.725
397  664.875

# Region:            Si2p
# Acquisition Date:  04/07/22 16:17:49 UTC
# Analysis Method:   XPS
# Analyzer:          Phoibos 100 R6
# Analyzer Lens:     LargeArea:1.5kV
# Analyzer Slit:     1:0.2x20\B:open
# Scan Mode:         FixedAnalyzerTransmission
# Curves/Scan:       1
# Values/Curve:      111
# Dwell Time:        0.8
# Excitation Energy: 1486.61
# Binding Energy:    110
# Pass Energy:       30
# Bias Voltage:      90
# Detector Voltage:  2600
# Eff. Workfunction: 4.309
# Source:            X-Ray Dummy
# Comment:           
#
# Cycle: 0
# Number of Scans: 10
#
# Cycle: 0, Curve: 0
# Acquisition Date: 04/07/22 16:17:49 UTC
#
# ColumnLabels: energy counts/s
#
110  372.875
109.9  377.125
109.8  366
109.7  363.625
109.6  375.25
109.5  383.125
109.4  367.875
109.3  370.25
109.2  384.875
109.1  387.375
109  389.5
108.9  379.625
108.8  384.75
108.7  387.25
108.6  397.5
108.5  399.625
108.4  426.625
108.3  421.375
108.2  430.5
108.1  442.375
108  447.25
107.9  490
107.8  523.875
107.7  531.125
107.6  556.875
107.5  639.5
107.4  647.625
107.3  688
107.2  732.25
107.1  781.375
107  861.125
106.9  922.125
106.8  999
106.7  1045.75
106.6  1112.25
106.5  1183.25
106.4  1243.5
106.3  1323.125
106.2  1334.625
106.1  1383
106  1428.375
105.9  1421.75
105.8  1395.75
105.7  1412.375
105.6  1377.25
105.5  1338.25
105.4  1280.5
105.3  1232.5
105.2  1163.25
105.1  1084.5
105  1023.875
104.9  940.875
104.8  854
104.7  805.25
104.6  751.25
104.5  656.75
104.4  633.75
104.3  569.25
104.2  536.875
104.1  514.625
104  481.25
103.9  450.875
103.8  421.125
103.7  417.125
103.6  415.75
103.5  393
103.4  398.25
103.3  380
103.2  377.375
103.1  366.75
103  361.125
102.9  368.625
102.8  353.875
102.7  362
102.6  353.5
102.5  353.25
102.4  337.5
102.3  355
102.2  345.125
102.1  360.875
102  347.25
101.9  346.125
101.8  349.875
101.7  343.625
101.6  344.875
101.5  345.125
101.4  341.375
101.3  346
101.2  339.875
101.1  346.375
101  342.75
100.9  335.875
100.8  333.625
100.7  330.375
100.6  334.625
100.5  329.875
100.4  331.75
100.3  350.5
100.2  341.625
100.1  343.75
100  340.375
99.9  347.875
99.8  346.5
99.7  343.625
99.6  348
99.5  337.75
99.4  343
99.3  340.625
99.2  333
99.1  342.5
99  329.25

