# Created by:        SpecsLab Prodigy, Version 4.74.2-r95700
#
# XY-Serializer Export Settings:
#   Comment Prefix:           #
#   Output Meta Data:         yes
#   Energy Axis:              Binding Energy
#   Count Rate:               Counts per Second
#   Separate Scan Data:       no
#   Separate Channel Data:    no
#   External Channel Data:    yes
#   Transmission Function:    no
#   Error Bar:                no
#   Operation Results:        yes
#   Time Zone Format:         UTC
#
# Group:             UHV Evap
#
# Region:            overview
# Spectrum ID:       27
# Acquisition Date:  06/24/22 12:25:02 UTC
# Analysis Method:   XPS
# Analyzer:          Analyzer
# Analyzer Lens:     MediumArea:1.5kV
# Analyzer Slit:     4:3x20\B:open
# Scan Mode:         FixedAnalyzerTransmission
# Curves/Scan:       1
# Values/Curve:      941
# Dwell Time:        0.1
# Excitation Energy: 1486.71
# Binding Energy:    936.71
# Pass Energy:       50
# Bias Voltage:      -1
# Detector Voltage:  1800
# Eff. Workfunction: 4.498
# Source:            XR 50 MF (UXC1000)
# Comment:
# OrdinateRange:     [-7.000000, 7.000000]
#
# Cycle: 0
# Number of Scans: 1
#
# Cycle: 0, Curve: 0
# Acquisition Date: 06/24/22 12:25:02 UTC
#
# ColumnLabels: energy counts/s
#
936.71  5.2301899
935.71  5.9458377
934.71  6.6581536
933.71  5.9123344
932.71  5.6084549
931.71  5.7101863
930.71  6.4960675
929.71  5.7768651
928.71  6.2472419
927.71  7.3412153
926.71  6.4695363
925.71  6.7420844
924.71  5.4417102
923.71  7.2839932
922.71  6.3060721
921.71  5.3565857
920.71  5.8502763
919.71  6.488
918.71  6.1229529
917.71  5.9704725
916.71  5.5959217
915.71  5.9230225
914.71  5.9585235
913.71  6.0245112
912.71  5.8075855
911.71  5.8727327
910.71  6.4164778
909.71  6.8887913
908.71  6.4274048
907.71  7.8136975
906.71  8.2839005
905.71  6.6207698
904.71  6.1719818
903.71  6.5915544
902.71  6.2731953
901.71  6.3629544
900.71  6.0557808
899.71  6.2463239
898.71  6.1910786
897.71  7.0697345
896.71  6.2479835
895.71  6.1689075
894.71  6.5455328
893.71  6.3887352
892.71  6.7428987
891.71  6.0689239
890.71  6.9483329
889.71  6.9191683
888.71  7.2214546
887.71  7.0588
886.71  7.3874781
885.71  7.3915273
884.71  7.5580597
883.71  6.5471864
882.71  6.916184
881.71  6.3650957
880.71  6.9280445
879.71  7.4177841
878.71  7.4606099
877.71  7.1625112
876.71  6.4418284
875.71  6.7573113
874.71  6.2782706
873.71  8.0761809
872.71  7.4903945
871.71  7.9732872
870.71  7.8319473
869.71  7.7146864
868.71  6.395962
867.71  6.1779502
866.71  7.4547046
865.71  6.8997441
864.71  7.025201
863.71  6.9789939
862.71  7.6630285
861.71  7.180435
860.71  6.9627406
859.71  7.0479028
858.71  8.1012871
857.71  7.3715612
856.71  8.0931138
855.71  7.0377887
854.71  8.9074817
853.71  6.3254304
852.71  7.2400264
851.71  7.4046063
850.71  7.5533668
849.71  7.3806571
848.71  8.2300698
847.71  8.2189339
846.71  7.1515474
845.71  7.503387
844.71  8.8363803
843.71  8.5933084
842.71  7.88832
841.71  7.3635091
840.71  7.3971512
839.71  8.205818
838.71  8.8872435
837.71  7.1336686
836.71  6.9332532
835.71  7.3426758
834.71  7.4655775
833.71  7.2913424
832.71  7.457488
831.71  7.9310952
830.71  8.141571
829.71  9.188267
828.71  8.2632126
827.71  7.5273548
826.71  8.0366061
825.71  7.7110744
824.71  7.3897695
823.71  7.5768889
822.71  7.7039647
821.71  7.7427128
820.71  8.211278
819.71  7.9568993
818.71  8.4726559
817.71  7.5062549
816.71  7.73031
815.71  8.0765024
814.71  8.6638631
813.71  8.3880527
812.71  8.3962133
811.71  7.4802117
810.71  8.9293634
809.71  9.6989583
808.71  7.6453359
807.71  8.4702373
806.71  9.1175118
805.71  8.0592894
804.71  8.2376809
803.71  6.9899675
802.71  7.8663101
801.71  9.0156249
800.71  9.5638031
799.71  8.5852885
798.71  7.690844
797.71  8.9715162
796.71  8.5248149
795.71  7.9341982
794.71  9.4054152
793.71  8.8948242
792.71  8.4291497
791.71  9.6830251
790.71  9.0841968
789.71  8.1284907
788.71  7.4251194
787.71  7.6318276
786.71  8.8373611
785.71  9.5863719
784.71  9.5072101
783.71  10.066273
782.71  9.2685796
781.71  9.3578247
780.71  8.6221127
779.71  9.5337304
778.71  8.2004547
777.71  8.4363903
776.71  9.1067701
775.71  8.0507884
774.71  8.2406117
773.71  7.0003247
772.71  8.0111709
771.71  8.9772255
770.71  8.9557546
769.71  9.9479492
768.71  8.2954469
767.71  8.0932795
766.71  8.9338354
765.71  9.7555749
764.71  8.8410685
763.71  9.6073285
762.71  10.180014
761.71  10.49724
760.71  9.1909033
759.71  9.4169395
758.71  8.9827682
757.71  7.9449721
756.71  8.863926
755.71  8.6678221
754.71  8.5623034
753.71  7.742373
752.71  8.6697173
751.71  9.8384316
750.71  9.5655487
749.71  10.138617
748.71  9.4567145
747.71  10.011402
746.71  10.593616
745.71  9.0226635
744.71  10.017082
743.71  11.039325
742.71  9.9317201
741.71  9.8549543
740.71  9.7991901
739.71  10.230467
738.71  10.363384
737.71  10.174282
736.71  9.6207923
735.71  9.71133
734.71  10.206106
733.71  10.612424
732.71  9.4963548
731.71  8.9787918
730.71  9.5733406
729.71  10.683077
728.71  9.5277562
727.71  10.297564
726.71  10.264151
725.71  9.4411079
724.71  9.4441389
723.71  10.607583
722.71  9.5892789
721.71  9.8164272
720.71  10.052432
719.71  9.7779976
718.71  11.122479
717.71  10.714482
716.71  10.007602
715.71  9.7922749
714.71  9.7856057
713.71  10.355965
712.71  10.233797
711.71  9.8961595
710.71  9.1867546
709.71  10.026561
708.71  10.032694
707.71  9.5542341
706.71  9.2108258
705.71  10.489103
704.71  9.3496844
703.71  11.103235
702.71  10.284495
701.71  9.3206232
700.71  10.622639
699.71  10.797333
698.71  11.152845
697.71  9.9768181
696.71  10.042935
695.71  10.259609
694.71  11.032864
693.71  10.442663
692.71  9.7306778
691.71  10.229403
690.71  11.219894
689.71  12.955402
688.71  12.094663
687.71  10.883508
686.71  11.948998
685.71  11.17749
684.71  11.864738
683.71  10.011467
682.71  9.4356563
681.71  10.384026
680.71  10.287734
679.71  10.894335
678.71  12.261699
677.71  10.626634
676.71  10.836876
675.71  10.614651
674.71  10.713651
673.71  10.621485
672.71  10.896026
671.71  10.448224
670.71  11.773945
669.71  13.423275
668.71  12.606693
667.71  12.321479
666.71  10.835556
665.71  12.001127
664.71  12.161521
663.71  11.141729
662.71  11.519175
661.71  11.794764
660.71  11.328395
659.71  9.1836819
658.71  10.224411
657.71  11.942632
656.71  10.559743
655.71  10.937936
654.71  10.189269
653.71  11.011653
652.71  11.113575
651.71  11.523267
650.71  10.695741
649.71  12.569991
648.71  12.014557
647.71  12.577174
646.71  12.782608
645.71  12.289054
644.71  12.377901
643.71  11.538568
642.71  11.328336
641.71  11.827942
640.71  10.617246
639.71  12.153136
638.71  11.607019
637.71  11.345446
636.71  11.26658
635.71  11.007953
634.71  10.818299
633.71  12.176993
632.71  11.264075
631.71  11.697322
630.71  11.381272
629.71  12.153071
628.71  12.45295
627.71  13.658302
626.71  12.454191
625.71  11.490082
624.71  11.173392
623.71  10.9502
622.71  12.183852
621.71  10.829972
620.71  11.401811
619.71  12.311418
618.71  12.624431
617.71  13.495768
616.71  11.825007
615.71  12.993754
614.71  11.78171
613.71  11.87947
612.71  11.651772
611.71  13.375095
610.71  12.571185
609.71  12.054292
608.71  13.775247
607.71  12.081985
606.71  13.224724
605.71  12.45127
604.71  13.263846
603.71  14.08324
602.71  12.982198
601.71  13.045313
600.71  12.015788
599.71  13.66936
598.71  13.760777
597.71  12.939793
596.71  14.377054
595.71  13.317008
594.71  14.147084
593.71  11.75907
592.71  12.393723
591.71  14.971484
590.71  13.38874
589.71  11.391221
588.71  12.498458
587.71  14.606472
586.71  14.636472
585.71  13.47283
584.71  14.188514
583.71  13.03856
582.71  12.519031
581.71  13.326356
580.71  13.460116
579.71  12.337855
578.71  13.358473
577.71  15.133933
576.71  14.331499
575.71  14.897748
574.71  12.571322
573.71  13.481652
572.71  14.369792
571.71  13.358268
570.71  12.295569
569.71  12.640388
568.71  14.131937
567.71  14.914643
566.71  15.846153
565.71  15.793684
564.71  17.613813
563.71  14.950148
562.71  12.959359
561.71  13.275758
560.71  13.297334
559.71  13.522377
558.71  14.662701
557.71  13.866601
556.71  13.492518
555.71  14.403183
554.71  13.363107
553.71  14.408706
552.71  14.025298
551.71  13.735631
550.71  12.641008
549.71  15.828236
548.71  14.488678
547.71  13.336432
546.71  13.576573
545.71  12.381906
544.71  13.540353
543.71  14.006118
542.71  14.858984
541.71  13.71732
540.71  15.605564
539.71  14.636857
538.71  13.394416
537.71  13.917464
536.71  14.170036
535.71  14.489192
534.71  15.691274
533.71  18.373713
532.71  21.48934
531.71  24.09632
530.71  20.720268
529.71  13.925616
528.71  13.77953
527.71  14.546136
526.71  14.573388
525.71  13.277178
524.71  12.219607
523.71  12.66201
522.71  10.67597
521.71  12.742175
520.71  12.658526
519.71  12.879516
518.71  13.827153
517.71  13.448204
516.71  13.058807
515.71  11.90931
514.71  12.612572
513.71  14.972282
512.71  14.525661
511.71  13.173122
510.71  13.748102
509.71  12.935779
508.71  12.759536
507.71  12.110081
506.71  13.455271
505.71  12.996476
504.71  12.532236
503.71  13.441319
502.71  12.840126
501.71  14.168766
500.71  13.119909
499.71  14.550281
498.71  13.682726
497.71  14.40781
496.71  14.210317
495.71  15.190397
494.71  14.291206
493.71  13.231908
492.71  13.041249
491.71  15.138473
490.71  14.895867
489.71  13.769515
488.71  15.855025
487.71  15.395978
486.71  14.203167
485.71  13.56418
484.71  13.802961
483.71  15.070396
482.71  15.792495
481.71  13.246078
480.71  14.498327
479.71  16.536854
478.71  17.616024
477.71  15.291938
476.71  14.981514
475.71  15.243568
474.71  15.135217
473.71  17.281744
472.71  16.552424
471.71  15.366382
470.71  14.803471
469.71  13.668475
468.71  16.259743
467.71  15.897568
466.71  15.972246
465.71  17.129884
464.71  19.113709
463.71  18.994633
462.71  15.172967
461.71  15.969753
460.71  15.875678
459.71  15.619146
458.71  15.387709
457.71  15.54448
456.71  14.577814
455.71  15.127455
454.71  15.552788
453.71  14.747463
452.71  14.110346
451.71  14.418397
450.71  15.367117
449.71  16.291666
448.71  14.929747
447.71  15.064332
446.71  14.525906
445.71  14.883927
444.71  13.061857
443.71  13.73317
442.71  14.29538
441.71  14.943491
440.71  14.254394
439.71  14.529361
438.71  15.246743
437.71  15.697751
436.71  14.200359
435.71  15.041168
434.71  16.152931
433.71  14.58262
432.71  14.084301
431.71  15.560015
430.71  16.272598
429.71  14.672022
428.71  16.402349
427.71  15.786882
426.71  16.15863
425.71  17.312067
424.71  16.882872
423.71  14.814969
422.71  16.864412
421.71  16.418791
420.71  15.892251
419.71  16.161174
418.71  15.18905
417.71  16.037024
416.71  17.661089
415.71  18.274113
414.71  14.809731
413.71  14.571062
412.71  14.610275
411.71  16.199934
410.71  15.47801
409.71  16.19187
408.71  15.948537
407.71  15.625643
406.71  16.446024
405.71  17.015734
404.71  19.089037
403.71  20.015001
402.71  21.108864
401.71  21.363759
400.71  20.439418
399.71  16.966165
398.71  14.633979
397.71  14.806314
396.71  14.149239
395.71  13.157574
394.71  14.050697
393.71  13.626134
392.71  12.964219
391.71  14.478936
390.71  13.714143
389.71  12.197283
388.71  11.808641
387.71  12.784745
386.71  12.6006
385.71  12.005914
384.71  12.230656
383.71  11.984249
382.71  12.450315
381.71  14.326412
380.71  12.178302
379.71  12.702323
378.71  12.238924
377.71  13.46549
376.71  12.428272
375.71  11.812524
374.71  11.633581
373.71  12.283959
372.71  13.452298
371.71  13.588702
370.71  12.659172
369.71  12.507831
368.71  14.180762
367.71  13.817725
366.71  14.138313
365.71  13.62475
364.71  11.54962
363.71  14.475808
362.71  13.270259
361.71  11.51259
360.71  13.025893
359.71  14.604711
358.71  13.582925
357.71  14.474023
356.71  13.754195
355.71  13.486941
354.71  14.75642
353.71  14.843493
352.71  14.525425
351.71  15.218398
350.71  14.470049
349.71  12.841346
348.71  15.09763
347.71  14.977873
346.71  13.147794
345.71  13.33388
344.71  13.984276
343.71  14.827862
342.71  14.020689
341.71  13.052834
340.71  13.643482
339.71  13.765649
338.71  14.003126
337.71  15.662704
336.71  15.18658
335.71  15.429671
334.71  15.062996
333.71  13.813634
332.71  15.222409
331.71  15.469621
330.71  14.043399
329.71  13.972697
328.71  13.419737
327.71  15.673394
326.71  15.567062
325.71  16.043694
324.71  13.894666
323.71  15.445771
322.71  16.510433
321.71  15.922014
320.71  13.953169
319.71  15.462034
318.71  15.441876
317.71  15.507864
316.71  15.68737
315.71  16.000182
314.71  16.353205
313.71  15.243336
312.71  15.76851
311.71  14.180653
310.71  15.219316
309.71  16.733054
308.71  17.47367
307.71  15.689012
306.71  15.81669
305.71  14.536292
304.71  15.03211
303.71  15.608397
302.71  16.944341
301.71  16.713377
300.71  15.073579
299.71  16.214205
298.71  17.134745
297.71  16.433478
296.71  18.439862
295.71  16.135276
294.71  18.742037
293.71  17.495802
292.71  17.80754
291.71  16.503266
290.71  17.393861
289.71  18.32409
288.71  18.286034
287.71  18.436617
286.71  23.049591
285.71  25.339871
284.71  25.17014
283.71  20.020052
282.71  18.666745
281.71  15.984519
280.71  16.209826
279.71  15.658651
278.71  15.48432
277.71  15.218999
276.71  16.748135
275.71  16.027501
274.71  16.223996
273.71  17.847783
272.71  17.088589
271.71  17.763352
270.71  17.639926
269.71  16.492381
268.71  18.048503
267.71  16.8107
266.71  16.752628
265.71  19.440408
264.71  18.664125
263.71  18.858631
262.71  17.38958
261.71  18.236723
260.71  19.177348
259.71  18.962648
258.71  18.062474
257.71  18.76384
256.71  19.281145
255.71  18.722923
254.71  18.262265
253.71  18.871025
252.71  18.865943
251.71  17.743549
250.71  18.176124
249.71  19.923209
248.71  18.622758
247.71  19.758799
246.71  16.998848
245.71  18.045364
244.71  20.415003
243.71  21.254813
242.71  22.985178
241.71  24.016198
240.71  24.17183
239.71  24.680128
238.71  26.685999
237.71  22.78692
236.71  19.165579
235.71  16.936176
234.71  15.314968
233.71  15.713894
232.71  17.376901
231.71  18.686503
230.71  21.091463
229.71  24.803292
228.71  26.921889
227.71  28.950976
226.71  27.333247
225.71  20.669478
224.71  14.240228
223.71  10.700814
222.71  9.4697654
221.71  7.391546
220.71  6.0511542
219.71  6.7066503
218.71  5.6366677
217.71  5.3425914
216.71  5.8463742
215.71  5.7357898
214.71  5.8224668
213.71  5.9996104
212.71  5.3416014
211.71  5.6849851
210.71  5.8709695
209.71  5.2028667
208.71  4.8516045
207.71  5.4382087
206.71  6.2575574
205.71  6.7300404
204.71  5.2564627
203.71  5.1516705
202.71  5.7526406
201.71  6.6627449
200.71  6.329204
199.71  6.907302
198.71  6.1292562
197.71  5.3239042
196.71  4.6258338
195.71  5.1033963
194.71  5.1563784
193.71  5.2798494
192.71  5.1752868
191.71  5.7879599
190.71  5.5543836
189.71  6.1782004
188.71  5.4723683
187.71  6.1355097
186.71  5.3602867
185.71  5.718991
184.71  5.352386
183.71  4.8142162
182.71  5.384833
181.71  5.9031381
180.71  5.0294311
179.71  4.9487982
178.71  4.8104538
177.71  5.1200872
176.71  5.4105379
175.71  5.2254033
174.71  5.7550271
173.71  6.5124193
172.71  5.5519661
171.71  5.7089485
170.71  4.9433071
169.71  4.5135277
168.71  6.2082304
167.71  6.5873069
166.71  6.834599
165.71  5.7107578
164.71  6.1076203
163.71  5.706337
162.71  6.3743387
161.71  6.9533281
160.71  6.5078748
159.71  6.5912669
158.71  5.7767122
157.71  6.3720035
156.71  7.2241664
155.71  5.9289522
154.71  6.3950336
153.71  6.4108653
152.71  5.850165
151.71  5.6234051
150.71  6.7523748
149.71  6.6123498
148.71  6.4100263
147.71  6.3881949
146.71  5.7019907
145.71  5.3537191
144.71  6.5990443
143.71  7.7329426
142.71  5.7509526
141.71  6.1674738
140.71  6.0212278
139.71  5.791844
138.71  6.0242634
137.71  6.6685182
136.71  6.3154274
135.71  6.6299444
134.71  6.6979087
133.71  6.4187812
132.71  7.4120007
131.71  6.6327736
130.71  5.7187469
129.71  6.0423826
128.71  6.8703468
127.71  6.3542673
126.71  6.5811208
125.71  7.317561
124.71  7.5960529
123.71  7.4323438
122.71  7.8833064
121.71  6.5087741
120.71  6.9317362
119.71  7.1439828
118.71  7.2406044
117.71  7.356257
116.71  7.1768561
115.71  7.323645
114.71  7.6774226
113.71  7.0141161
112.71  7.0881706
111.71  7.2433907
110.71  7.3256704
109.71  8.1953603
108.71  7.0079796
107.71  6.6726663
106.71  7.108576
105.71  7.4192405
104.71  7.2280735
103.71  6.9016279
102.71  7.4502729
101.71  7.1325895
100.71  7.2536863
99.71  7.1830662
98.71  7.7725521
97.71  7.8626109
96.71  7.6496562
95.71  7.9073274
94.71  7.3643786
93.71  7.7463566
92.71  7.3795001
91.71  7.6831058
90.71  8.5465806
89.71  6.81107
88.71  7.3782573
87.71  8.227461
86.71  7.3580334
85.71  7.6027617
84.71  8.0246429
83.71  7.5007643
82.71  7.1959757
81.71  8.3225586
80.71  9.0110179
79.71  7.7406553
78.71  7.8614726
77.71  9.1970488
76.71  9.7954588
75.71  9.1500372
74.71  7.8286398
73.71  8.6498813
72.71  9.9528702
71.71  9.7927439
70.71  9.1375696
69.71  9.4272321
68.71  9.2076793
67.71  9.1668688
66.71  8.5599202
65.71  8.0256497
64.71  8.3326168
63.71  8.5099197
62.71  8.1296327
61.71  8.4699375
60.71  9.200463
59.71  8.273057
58.71  8.1279003
57.71  7.7921757
56.71  7.5207267
55.71  9.3795382
54.71  8.573239
53.71  7.5587368
52.71  7.938304
51.71  8.9485733
50.71  9.21141
49.71  9.4149332
48.71  9.9901185
47.71  11.197666
46.71  11.223523
45.71  11.195562
44.71  11.142286
43.71  11.517123
42.71  10.420207
41.71  9.2053558
40.71  9.3369539
39.71  8.5847245
38.71  7.8794608
37.71  8.9043048
36.71  8.0142432
35.71  8.9002176
34.71  9.0326672
33.71  8.0399693
32.71  7.4392814
31.71  5.706594
30.71  6.2631459
29.71  7.8083011
28.71  9.7699862
27.71  12.388803
26.71  18.842186
25.71  31.714525
24.71  39.770616
23.71  36.470976
22.71  25.651176
21.71  6.1940125
20.71  1.4263327
19.71  0.97528763
18.71  0.91116263
17.71  1.0699078
16.71  1.0228502
15.71  1.9040271
14.71  1.601752
13.71  0.82592788
12.71  0.84105482
11.71  0.66829237
10.71  0.61964492
9.71  0.68484062
8.71  0.83627323
7.71  1.1460758
6.71  1.354062
5.71  1.6516008
4.71  1.4055856
3.71  1.2025446
2.71  1.6092007
1.71  1.6825264
0.71  0.87589505
-0.29  0.48049572
-1.29  0.43968203
-2.29  0.43061496
-3.29  0.43497344

# Region:            overview (2)
# Spectrum ID:       28
# Acquisition Date:  06/24/22 12:49:46 UTC
# Analysis Method:   XPS
# Analyzer:          Analyzer
# Analyzer Lens:     MediumArea:1.5kV
# Analyzer Slit:     4:3x20\B:open
# Scan Mode:         FixedAnalyzerTransmission
# Curves/Scan:       1
# Values/Curve:      941
# Dwell Time:        0.1
# Excitation Energy: 1486.71
# Binding Energy:    936.71
# Pass Energy:       50
# Bias Voltage:      -1
# Detector Voltage:  1800
# Eff. Workfunction: 4.498
# Source:            XR 50 MF (UXC1000)
# Comment:           x=3.5, y=13 z=546.5 (center), th=40, slit 4, Iris 40, RT=299K
# OrdinateRange:     [-7.000000, 7.000000]
#
# Cycle: 0
# Number of Scans: 1
#
# Cycle: 0, Curve: 0
# Acquisition Date: 06/24/22 12:49:46 UTC
#
# ColumnLabels: energy counts/s
#
936.71  1.6823076
935.71  2.061862
934.71  1.8943303
933.71  1.7763175
932.71  1.4101967
931.71  1.8984578
930.71  2.0630269
929.71  1.3665901
928.71  1.7495276
927.71  1.8562057
926.71  1.4438696
925.71  1.310434
924.71  1.8105811
923.71  1.8723121
922.71  1.6626944
921.71  1.7547166
920.71  1.7209619
919.71  1.6024221
918.71  1.5910441
917.71  1.295567
916.71  1.0610725
915.71  1.2302645
914.71  1.4142495
913.71  0.91431469
912.71  1.2313493
911.71  1.1594727
910.71  1.4541358
909.71  1.4175546
908.71  1.3655397
907.71  1.0886879
906.71  1.0882238
905.71  1.3436352
904.71  1.3948404
903.71  1.5249428
902.71  1.4962508
901.71  1.0325009
900.71  1.5708291
899.71  1.1212084
898.71  0.82795521
897.71  0.97719796
896.71  1.1002973
895.71  1.3161473
894.71  1.7352532
893.71  1.5341188
892.71  1.1905094
891.71  1.3137196
890.71  1.2850057
889.71  1.3800774
888.71  1.1840771
887.71  1.8117794
886.71  1.3067041
885.71  1.5268427
884.71  1.2969405
883.71  1.4809956
882.71  1.5527671
881.71  1.6519737
880.71  1.3738844
879.71  1.1598672
878.71  1.2820068
877.71  1.0201909
876.71  1.0420623
875.71  0.99238208
874.71  0.83944831
873.71  1.1746728
872.71  1.1967085
871.71  1.4785653
870.71  1.4365904
869.71  1.1890736
868.71  0.86559366
867.71  1.6440796
866.71  1.3820928
865.71  1.0866827
864.71  1.7919516
863.71  2.1031046
862.71  1.5090797
861.71  0.98998336
860.71  1.1361311
859.71  1.3084046
858.71  0.99551049
857.71  1.3130124
856.71  1.1629164
855.71  0.99015015
854.71  1.0914631
853.71  1.4352871
852.71  1.5196495
851.71  1.6762574
850.71  1.2240809
849.71  1.1204676
848.71  1.6300587
847.71  1.2261469
846.71  1.4097373
845.71  1.1019298
844.71  1.6642367
843.71  1.2106731
842.71  1.0174618
841.71  1.0939478
840.71  1.221752
839.71  1.0207215
838.71  1.0203252
837.71  1.0835762
836.71  1.1379426
835.71  1.0020785
834.71  1.1229549
833.71  1.0797404
832.71  0.93654576
831.71  1.2943954
830.71  1.2211383
829.71  1.1419521
828.71  1.3125275
827.71  1.2011533
826.71  0.96116494
825.71  1.0795823
824.71  1.3784437
823.71  1.4476511
822.71  1.6811197
821.71  1.7800928
820.71  1.4886089
819.71  1.2321298
818.71  1.2699284
817.71  1.321355
816.71  1.1192556
815.71  1.0233794
814.71  1.2101252
813.71  1.3237388
812.71  1.4049467
811.71  1.2530927
810.71  1.4175805
809.71  1.4704955
808.71  1.5205513
807.71  1.4801193
806.71  1.2033411
805.71  1.5695008
804.71  1.5846637
803.71  1.4540423
802.71  1.4092357
801.71  1.0941113
800.71  1.4366088
799.71  1.3471197
798.71  1.3723386
797.71  1.5287474
796.71  1.4394501
795.71  1.4411278
794.71  2.0454227
793.71  1.8882817
792.71  1.8983176
791.71  1.3387243
790.71  1.5181468
789.71  1.4669727
788.71  1.4454004
787.71  1.6043934
786.71  1.2564662
785.71  1.4662197
784.71  1.3947839
783.71  1.0898224
782.71  1.601164
781.71  1.9290452
780.71  2.0453809
779.71  1.4210587
778.71  1.4052061
777.71  1.7090613
776.71  1.1161179
775.71  0.95095176
774.71  1.2068229
773.71  1.2345422
772.71  1.14154
771.71  1.2486955
770.71  1.6817974
769.71  1.7085244
768.71  1.5165726
767.71  1.4525218
766.71  1.4480569
765.71  1.2725694
764.71  1.5579928
763.71  1.7063663
762.71  1.6632384
761.71  2.2258861
760.71  2.261003
759.71  1.6998482
758.71  1.6968829
757.71  1.3584948
756.71  1.4586089
755.71  1.5277737
754.71  1.5280692
753.71  1.7186849
752.71  1.6067661
751.71  2.265528
750.71  1.646226
749.71  1.5615379
748.71  1.6374475
747.71  1.657895
746.71  1.5523706
745.71  1.7455538
744.71  1.7950356
743.71  1.4599071
742.71  1.627724
741.71  1.5348259
740.71  1.6752325
739.71  1.7772332
738.71  2.3424109
737.71  1.5648282
736.71  1.606544
735.71  1.4992155
734.71  1.9073935
733.71  1.2571657
732.71  1.5521206
731.71  2.086975
730.71  1.7098519
729.71  1.6573884
728.71  1.7513974
727.71  1.4242628
726.71  1.7791681
725.71  1.5697747
724.71  1.6315312
723.71  1.7754072
722.71  1.5464713
721.71  1.58255
720.71  1.7325577
719.71  1.7341767
718.71  1.9676535
717.71  1.8228031
716.71  2.3191981
715.71  1.7084511
714.71  1.4951607
713.71  1.4430122
712.71  1.7047451
711.71  1.7531013
710.71  1.7339496
709.71  1.7690085
708.71  1.9788951
707.71  1.97397
706.71  1.8737681
705.71  1.5450239
704.71  2.2540603
703.71  2.7797774
702.71  1.6131461
701.71  1.6831234
700.71  1.8771948
699.71  1.4582705
698.71  1.5389346
697.71  1.4492987
696.71  1.8561274
695.71  1.5420949
694.71  2.2738559
693.71  1.8982958
692.71  1.5043714
691.71  1.5044374
690.71  1.6359663
689.71  1.7477997
688.71  1.6611298
687.71  1.4714157
686.71  1.7157277
685.71  1.5169258
684.71  2.1772436
683.71  1.6662807
682.71  1.6682275
681.71  1.5335697
680.71  1.9467096
679.71  1.878739
678.71  2.051577
677.71  2.3425545
676.71  2.6278218
675.71  1.6267363
674.71  1.7934222
673.71  1.7275723
672.71  2.2048448
671.71  2.2440878
670.71  1.8806445
669.71  2.5837539
668.71  2.4921521
667.71  1.9572974
666.71  1.7941671
665.71  1.8575292
664.71  1.9202643
663.71  2.1440589
662.71  2.4828934
661.71  2.3631212
660.71  2.4072848
659.71  2.4403545
658.71  3.1025648
657.71  2.9958055
656.71  1.9553658
655.71  2.4730606
654.71  1.7546522
653.71  1.7799524
652.71  1.6436321
651.71  1.4669001
650.71  2.2009281
649.71  1.8661684
648.71  1.9948833
647.71  1.597003
646.71  2.8086741
645.71  2.5345193
644.71  2.3585858
643.71  1.6646302
642.71  1.7588188
641.71  1.8964082
640.71  2.6414021
639.71  1.6145602
638.71  2.0665584
637.71  2.3877034
636.71  1.8950764
635.71  2.0656799
634.71  2.2726399
633.71  2.1217133
632.71  1.7365109
631.71  1.8190854
630.71  2.3861723
629.71  3.5443897
628.71  2.4097925
627.71  2.1673133
626.71  1.9057679
625.71  1.8646376
624.71  2.0324933
623.71  2.1992067
622.71  2.1248952
621.71  2.5101309
620.71  2.3596696
619.71  2.6465289
618.71  1.8477709
617.71  1.4000545
616.71  2.011451
615.71  1.8293878
614.71  1.6405212
613.71  1.9064302
612.71  1.8720443
611.71  1.7084363
610.71  2.0176017
609.71  1.573564
608.71  1.8940173
607.71  1.854456
606.71  2.2378106
605.71  2.2661554
604.71  2.3335876
603.71  2.6186963
602.71  1.7759625
601.71  1.7429007
600.71  1.732835
599.71  1.9252854
598.71  2.2555426
597.71  1.9694997
596.71  1.3714274
595.71  1.5098957
594.71  1.8687742
593.71  1.5450025
592.71  1.6036312
591.71  1.6406032
590.71  1.5336072
589.71  1.4113543
588.71  1.5577239
587.71  1.4990487
586.71  1.5603212
585.71  1.4121266
584.71  1.4066967
583.71  2.1417836
582.71  1.8481104
581.71  1.6731979
580.71  1.3003362
579.71  1.2005276
578.71  1.9755748
577.71  1.8115918
576.71  1.6525681
575.71  1.9136962
574.71  1.5519011
573.71  2.0989904
572.71  2.0238881
571.71  1.4494921
570.71  1.5023782
569.71  1.5786637
568.71  1.6974402
567.71  1.5645563
566.71  1.85779
565.71  2.3383514
564.71  1.689573
563.71  1.2803325
562.71  1.2934819
561.71  1.2679648
560.71  1.2058122
559.71  1.1586582
558.71  1.5091793
557.71  1.3408927
556.71  1.2662358
555.71  1.8854528
554.71  1.6145772
553.71  1.3128453
552.71  1.2341576
551.71  0.95854519
550.71  0.94599107
549.71  1.5645425
548.71  1.5034872
547.71  0.88650941
546.71  1.107663
545.71  1.5520095
544.71  1.3606931
543.71  1.0753976
542.71  1.3412646
541.71  1.1706637
540.71  1.2064598
539.71  1.2266911
538.71  0.80207089
537.71  0.98389923
536.71  1.5245177
535.71  1.3955016
534.71  1.2978422
533.71  1.0279543
532.71  0.94279869
531.71  0.87136249
530.71  0.92422801
529.71  1.6160092
528.71  1.2421117
527.71  1.3444578
526.71  1.3603027
525.71  0.85096576
524.71  0.90257654
523.71  1.1196889
522.71  0.92789081
521.71  1.1319779
520.71  0.9862134
519.71  0.94671522
518.71  0.83999799
517.71  1.1261707
516.71  0.96432113
515.71  1.0829336
514.71  1.0247211
513.71  0.7312786
512.71  1.5802946
511.71  1.7124958
510.71  1.9419448
509.71  1.5863711
508.71  1.2657994
507.71  0.896134
506.71  0.98067524
505.71  0.88028566
504.71  0.81815735
503.71  0.82835413
502.71  0.84690382
501.71  0.86862733
500.71  0.70029819
499.71  0.71319034
498.71  0.68091142
497.71  0.83060125
496.71  1.0395542
495.71  1.0635816
494.71  0.59762294
493.71  2.2962954
492.71  0.82627955
491.71  0.77227238
490.71  1.0150812
489.71  0.87799788
488.71  0.67606524
487.71  0.675361
486.71  0.79584517
485.71  0.72550238
484.71  0.59807718
483.71  0.79250142
482.71  0.81651073
481.71  0.59316378
480.71  0.60323604
479.71  0.7224872
478.71  1.0469944
477.71  1.3814189
476.71  1.0865703
475.71  0.85128793
474.71  0.5731473
473.71  0.65280405
472.71  0.63041095
471.71  0.55198879
470.71  0.60634343
469.71  0.60850092
468.71  0.51429266
467.71  0.60983806
466.71  0.55218187
465.71  0.61930543
464.71  0.54676725
463.71  0.6449975
462.71  0.85118336
461.71  0.81501012
460.71  0.65389154
459.71  0.66863769
458.71  0.73069728
457.71  0.95054248
456.71  0.60958875
455.71  0.48861406
454.71  0.56373044
453.71  0.43269666
452.71  0.72367475
451.71  0.62058708
450.71  0.54437441
449.71  0.47496102
448.71  0.44827375
447.71  0.521628
446.71  0.63298013
445.71  0.57122472
444.71  0.83203361
443.71  0.58442044
442.71  0.45490218
441.71  0.4853955
440.71  0.55627598
439.71  0.50197611
438.71  0.45121099
437.71  0.4416343
436.71  0.45082655
435.71  0.46392315
434.71  0.44592434
433.71  0.52464187
432.71  0.55244672
431.71  0.63688582
430.71  0.4948437
429.71  0.45123684
428.71  0.43496451
427.71  0.47576085
426.71  0.54603937
425.71  0.45479688
424.71  0.42681416
423.71  0.4194791
422.71  0.4212249
421.71  0.43043665
420.71  0.45462992
419.71  0.55307532
418.71  0.48045432
417.71  0.4212119
416.71  0.42637225
415.71  0.43334018
414.71  0.43668266
413.71  0.48049519
412.71  1.2499901
411.71  0.4943133
410.71  0.43631353
409.71  0.51395336
408.71  0.54003426
407.71  0.41502899
406.71  0.40257783
405.71  0.41032684
404.71  0.51800355
403.71  0.45976666
402.71  0.5963514
401.71  0.54247755
400.71  0.40391527
399.71  0.40986684
398.71  0.43236891
397.71  0.61471271
396.71  0.43652189
395.71  0.42487713
394.71  0.4024948
393.71  0.42437472
392.71  0.42530172
391.71  0.43546975
390.71  0.41746326
389.71  0.40938772
388.71  0.40813631
387.71  0.41146761
386.71  0.427485
385.71  0.41645464
384.71  0.41976837
383.71  0.50412134
382.71  0.7067981
381.71  0.45595991
380.71  0.41395752
379.71  0.40893382
378.71  0.40242433
377.71  0.41561488
376.71  0.42515218
375.71  0.50190194
374.71  0.83588991
373.71  0.42726237
372.71  0.42655683
371.71  0.41562173
370.71  0.41347917
369.71  0.45278682
368.71  0.46956826
367.71  0.42138692
366.71  0.41482363
365.71  0.42256731
364.71  0.4434429
363.71  0.40938207
362.71  0.52314226
361.71  0.64375953
360.71  0.41180124
359.71  0.40829348
358.71  0.4131802
357.71  0.89816062
356.71  0.48618958
355.71  0.40321249
354.71  0.40496804
353.71  0.42382596
352.71  0.41285689
351.71  0.39437157
350.71  0.41086831
349.71  0.41537774
348.71  0.41134898
347.71  0.41619548
346.71  0.41419464
345.71  0.41359106
344.71  0.42826638
343.71  0.41087781
342.71  0.53512732
341.71  0.4913598
340.71  0.41393494
339.71  0.42177893
338.71  0.42274298
337.71  0.40073212
336.71  0.42220346
335.71  0.42547858
334.71  0.5310104
333.71  0.42714665
332.71  0.4154278
331.71  0.45351771
330.71  0.41258573
329.71  0.41046013
328.71  0.40989622
327.71  0.4067136
326.71  0.42964026
325.71  0.42643868
324.71  0.41325245
323.71  0.43054117
322.71  0.43190634
321.71  0.42875462
320.71  0.40452915
319.71  0.4171396
318.71  1.3362518
317.71  0.64306679
316.71  0.42369493
315.71  0.4217074
314.71  0.42184799
313.71  0.43136974
312.71  0.42900375
311.71  0.42162756
310.71  0.41306334
309.71  0.4114416
308.71  0.41647113
307.71  0.44543301
306.71  0.42484545
305.71  1.6719476
304.71  1.9197409
303.71  0.40851925
302.71  0.41409439
301.71  0.42184059
300.71  0.42680707
299.71  0.42240404
298.71  0.41750864
297.71  0.41739268
296.71  0.41911985
295.71  0.41461149
294.71  0.41302215
293.71  0.39108268
292.71  0.41029732
291.71  0.4082334
290.71  0.41130155
289.71  0.41525671
288.71  0.41603982
287.71  0.39929823
286.71  0.98399192
285.71  0.53737455
284.71  0.40639246
283.71  0.42322088
282.71  0.43117113
281.71  0.55493806
280.71  0.48633206
279.71  0.41994971
278.71  0.43593908
277.71  0.42879558
276.71  0.43396088
275.71  0.42234413
274.71  0.49310085
273.71  0.4534782
272.71  0.41234687
271.71  0.4276125
270.71  0.49338357
269.71  0.42541285
268.71  0.41380068
267.71  0.40956701
266.71  0.42289579
265.71  0.6757902
264.71  0.45098019
263.71  0.4217775
262.71  0.41040872
261.71  0.63824006
260.71  0.43579625
259.71  0.42279122
258.71  0.430813
257.71  0.41175424
256.71  0.40775565
255.71  0.40808097
254.71  0.41480405
253.71  0.41352544
252.71  0.41075733
251.71  0.41759547
250.71  0.39900958
249.71  0.40855561
248.71  0.42131974
247.71  0.42108248
246.71  0.40867092
245.71  0.40759118
244.71  0.41638888
243.71  0.55975792
242.71  0.50460038
241.71  0.40399815
240.71  0.42266043
239.71  0.40594494
238.71  0.40216962
237.71  0.41592426
236.71  0.41834722
235.71  0.41132623
234.71  0.41206721
233.71  0.41812011
232.71  0.40991503
231.71  0.51130423
230.71  0.54130811
229.71  0.61267247
228.71  0.50308642
227.71  0.59062466
226.71  0.53263723
225.71  0.43857681
224.71  0.46382114
223.71  0.42389912
222.71  0.42189487
221.71  0.41295602
220.71  0.41545174
219.71  0.43223185
218.71  0.43349618
217.71  0.40649327
216.71  0.49492147
215.71  0.42165617
214.71  0.42498067
213.71  0.42267295
212.71  0.40028563
211.71  0.40480544
210.71  0.51974585
209.71  0.46611423
208.71  0.41326553
207.71  0.41638116
206.71  0.50549947
205.71  0.44133356
204.71  0.41595977
203.71  0.79759909
202.71  0.47453275
201.71  0.4328179
200.71  0.41275453
199.71  0.41948688
198.71  0.40976857
197.71  0.40140246
196.71  0.40298068
195.71  0.41697458
194.71  0.40598811
193.71  0.42012493
192.71  0.41747702
191.71  0.40593024
190.71  0.40570623
189.71  0.41881023
188.71  0.47832758
187.71  0.44082497
186.71  0.43132029
185.71  0.40940155
184.71  0.53731891
183.71  0.44108665
182.71  0.40687559
181.71  0.41201552
180.71  0.42379059
179.71  0.6396201
178.71  0.69664294
177.71  0.42186835
176.71  0.40998395
175.71  0.41206332
174.71  0.42558742
173.71  0.46612215
172.71  0.65394333
171.71  0.42960291
170.71  0.49916635
169.71  0.47362037
168.71  0.44544432
167.71  0.41433072
166.71  0.40823789
165.71  0.44434934
164.71  0.45285675
163.71  0.45318526
162.71  0.43186731
161.71  0.70267149
160.71  0.56381214
159.71  0.52010337
158.71  0.41915014
157.71  0.4149081
156.71  0.4289363
155.71  0.43002624
154.71  0.4351603
153.71  0.43621132
152.71  0.43675798
151.71  0.42261581
150.71  0.864328
149.71  0.53075756
148.71  0.44971598
147.71  0.42753473
146.71  0.42598952
145.71  0.48046093
144.71  0.9691397
143.71  0.42243128
142.71  0.41779481
141.71  0.41686815
140.71  0.41032739
139.71  0.4086168
138.71  0.42843829
137.71  0.47925577
136.71  0.74178995
135.71  0.94282796
134.71  0.43350857
133.71  0.42650175
132.71  0.40864258
131.71  0.42202089
130.71  0.71906608
129.71  0.81796388
128.71  0.41669399
127.71  0.4000975
126.71  0.42653571
125.71  0.42306887
124.71  0.42252154
123.71  0.4242614
122.71  0.42176239
121.71  0.45218691
120.71  0.65430663
119.71  0.53652651
118.71  0.4279562
117.71  0.42301338
116.71  0.53518038
115.71  0.65179361
114.71  0.54899184
113.71  0.42096233
112.71  0.40721516
111.71  0.70254327
110.71  0.68961583
109.71  0.40270023
108.71  0.41119129
107.71  0.71227115
106.71  1.4214538
105.71  0.44081915
104.71  0.53186134
103.71  0.44315006
102.71  0.43292666
101.71  0.6037188
100.71  0.50519317
99.71  0.40905214
98.71  0.41748388
97.71  0.42190556
96.71  0.40085601
95.71  0.41584997
94.71  0.42969956
93.71  0.44593792
92.71  0.43704397
91.71  0.42441697
90.71  0.41200399
89.71  0.45459542
88.71  0.55333269
87.71  0.91298601
86.71  0.84101081
85.71  0.43962923
84.71  0.43249768
83.71  0.42140689
82.71  0.42190931
81.71  0.54840957
80.71  0.88477844
79.71  0.40181178
78.71  0.4149693
77.71  0.4123197
76.71  0.41460482
75.71  0.40899946
74.71  0.41877902
73.71  0.41827016
72.71  0.40422445
71.71  0.9435245
70.71  0.51745938
69.71  0.40988872
68.71  0.72091316
67.71  0.4794654
66.71  0.41642379
65.71  0.40194174
64.71  0.41318308
63.71  0.45241296
62.71  0.44707324
61.71  0.43346133
60.71  0.42994529
59.71  0.421867
58.71  0.41489078
57.71  0.39278386
56.71  0.40455002
55.71  0.51849336
54.71  0.47204447
53.71  0.42464405
52.71  0.41913526
51.71  0.42492333
50.71  0.41177788
49.71  0.42710986
48.71  0.43708709
47.71  0.42109509
46.71  0.41591189
45.71  0.41803495
44.71  0.41785574
43.71  0.48152678
42.71  0.43212066
41.71  1.7313998
40.71  0.89828993
39.71  0.8140312
38.71  0.41219927
37.71  0.44294878
36.71  0.43836899
35.71  0.41587041
34.71  0.39944064
33.71  0.39931468
32.71  0.40889678
31.71  0.41010313
30.71  0.42390894
29.71  0.6037315
28.71  0.63206679
27.71  0.64127385
26.71  0.46092769
25.71  0.46939138
24.71  0.43927908
23.71  0.43508148
22.71  0.4161821
21.71  0.41168143
20.71  0.41374054
19.71  0.40765205
18.71  0.43101592
17.71  0.47174467
16.71  0.70870376
15.71  0.42630012
14.71  0.57429711
13.71  0.42727166
12.71  0.41719347
11.71  0.40096875
10.71  0.40905344
9.71  0.41705124
8.71  0.42557801
7.71  0.4184667
6.71  0.40316793
5.71  0.40581323
4.71  0.4171408
3.71  0.42681464
2.71  0.42693456
1.71  0.41207824
0.71  0.41605794
-0.29  0.41217108
-1.29  0.81006599
-2.29  0.47618679
-3.29  0.53022007

# Region:            overview (3)
# Spectrum ID:       29
# Acquisition Date:  06/24/22 13:00:04 UTC
# Analysis Method:   XPS
# Analyzer:          Analyzer
# Analyzer Lens:     MediumArea:1.5kV
# Analyzer Slit:     4:3x20\B:open
# Scan Mode:         FixedAnalyzerTransmission
# Curves/Scan:       1
# Values/Curve:      941
# Dwell Time:        0.1
# Excitation Energy: 1486.71
# Binding Energy:    936.71
# Pass Energy:       50
# Bias Voltage:      -1
# Detector Voltage:  1800
# Eff. Workfunction: 4.498
# Source:            XR 50 MF (UXC1000)
# Comment:
# OrdinateRange:     [-7.000000, 7.000000]
#
# Cycle: 0
# Number of Scans: 1
#
# Cycle: 0, Curve: 0
# Acquisition Date: 06/24/22 13:00:04 UTC
#
# ColumnLabels: energy counts/s
#
936.71  2.3642999
935.71  2.4426271
934.71  1.6472468
933.71  1.5343405
932.71  1.9501307
931.71  1.9811565
930.71  1.3628423
929.71  1.7427293
928.71  1.4881958
927.71  1.8233471
926.71  1.4826633
925.71  1.6935658
924.71  2.0474854
923.71  2.6420976
922.71  2.9902607
921.71  2.523309
920.71  2.5878071
919.71  2.7248284
918.71  2.5789578
917.71  1.90311
916.71  1.8790011
915.71  2.7413893
914.71  2.1169315
913.71  2.7973101
912.71  2.7886982
911.71  2.2765487
910.71  1.9859418
909.71  1.5824973
908.71  2.2898057
907.71  2.9157454
906.71  2.1987965
905.71  1.9776311
904.71  1.3920479
903.71  2.1719852
902.71  2.3039153
901.71  2.2753906
900.71  2.2544456
899.71  2.2998486
898.71  2.7858996
897.71  2.2181186
896.71  1.7944037
895.71  2.152985
894.71  2.0842047
893.71  2.1734496
892.71  1.7837365
891.71  2.0453856
890.71  2.1258048
889.71  2.6126935
888.71  1.8716435
887.71  1.7801368
886.71  2.3939211
885.71  2.0244776
884.71  2.585663
883.71  2.4020482
882.71  2.8330079
881.71  3.0578702
880.71  2.2196151
879.71  1.8530293
878.71  2.3899356
877.71  2.3304953
876.71  2.6572403
875.71  2.718677
874.71  2.1352617
873.71  2.4056861
872.71  2.5965208
871.71  2.2273006
870.71  3.5053827
869.71  3.17911
868.71  2.4884101
867.71  2.4728209
866.71  2.6372522
865.71  2.8377196
864.71  2.5377992
863.71  2.675125
862.71  2.498393
861.71  2.6016812
860.71  2.3275148
859.71  2.0730966
858.71  2.4508207
857.71  2.5304286
856.71  2.6394192
855.71  2.4571988
854.71  2.2509243
853.71  2.2872427
852.71  2.264911
851.71  3.0169393
850.71  2.723845
849.71  2.2487615
848.71  2.2266026
847.71  3.1377842
846.71  2.9432835
845.71  2.7891118
844.71  2.2867595
843.71  2.3774653
842.71  2.691824
841.71  2.7598029
840.71  2.9759475
839.71  3.080098
838.71  2.9247128
837.71  3.1715145
836.71  2.5928883
835.71  2.0982263
834.71  2.5029271
833.71  3.274467
832.71  3.0296252
831.71  2.615383
830.71  2.7521723
829.71  2.7918526
828.71  2.5803643
827.71  3.210672
826.71  2.8412503
825.71  2.6256599
824.71  2.8181355
823.71  3.1601489
822.71  3.1736329
821.71  2.6346971
820.71  2.9571636
819.71  3.2607646
818.71  3.1947932
817.71  3.1540252
816.71  2.9411947
815.71  3.2058797
814.71  3.319809
813.71  2.9738714
812.71  3.1461158
811.71  2.7100377
810.71  2.9066834
809.71  2.8622315
808.71  3.6273765
807.71  3.7567762
806.71  3.2621484
805.71  3.3259636
804.71  2.6350573
803.71  2.3882359
802.71  3.1290384
801.71  2.9284331
800.71  3.7303698
799.71  3.0954219
798.71  2.9233973
797.71  2.9711022
796.71  3.1506119
795.71  2.9110241
794.71  3.9410415
793.71  3.4588552
792.71  3.4440542
791.71  2.909965
790.71  3.8708708
789.71  2.9068216
788.71  2.8058292
787.71  3.0535805
786.71  3.5540538
785.71  3.9620471
784.71  3.9688906
783.71  3.2962041
782.71  3.7239107
781.71  3.5137483
780.71  3.2718493
779.71  3.0170456
778.71  2.5799185
777.71  2.9362153
776.71  3.112539
775.71  3.6632318
774.71  3.8414474
773.71  3.9943418
772.71  3.4804406
771.71  3.6513005
770.71  3.8345287
769.71  5.1519811
768.71  3.2623164
767.71  3.5147344
766.71  3.498735
765.71  3.66676
764.71  3.6114223
763.71  3.5336208
762.71  2.9313722
761.71  3.2488492
760.71  3.6843328
759.71  3.3166732
758.71  3.9661083
757.71  3.7919724
756.71  3.2337565
755.71  3.612907
754.71  3.2535199
753.71  3.6318873
752.71  3.9388554
751.71  4.3270491
750.71  3.6695336
749.71  2.8550449
748.71  3.3910896
747.71  4.4204792
746.71  3.8782776
745.71  3.7638405
744.71  3.5144148
743.71  3.3723249
742.71  4.7029825
741.71  3.5555727
740.71  3.9093339
739.71  3.7346273
738.71  3.9973621
737.71  3.5096675
736.71  4.3943527
735.71  4.1437289
734.71  3.5328442
733.71  3.1303384
732.71  3.247146
731.71  3.5426531
730.71  4.6712103
729.71  2.9463449
728.71  3.2847037
727.71  3.0424858
726.71  3.6782358
725.71  3.4174166
724.71  3.415826
723.71  3.1282057
722.71  3.0163616
721.71  3.4724364
720.71  3.9597612
719.71  3.1456011
718.71  3.2471422
717.71  2.8130079
716.71  2.3986598
715.71  2.5033532
714.71  2.385042
713.71  3.5287669
712.71  2.9851408
711.71  2.3101401
710.71  2.6156715
709.71  2.0132503
708.71  2.029173
707.71  3.1929149
706.71  2.2494902
705.71  2.1524386
704.71  2.2375464
703.71  2.8423318
702.71  2.0917282
701.71  1.8897032
700.71  1.9588296
699.71  2.1678032
698.71  2.0533028
697.71  1.9783141
696.71  1.6334439
695.71  1.8402434
694.71  1.4586882
693.71  2.1358677
692.71  2.1685465
691.71  1.9741781
690.71  1.792
689.71  1.8251902
688.71  1.5335801
687.71  1.2125414
686.71  1.9382562
685.71  1.7440728
684.71  2.1455362
683.71  1.3049078
682.71  1.5564939
681.71  2.0381573
680.71  1.5951133
679.71  1.5659657
678.71  1.8801681
677.71  1.5440728
676.71  1.5242575
675.71  1.4629724
674.71  1.6474944
673.71  1.7251015
672.71  1.2047919
671.71  1.7181932
670.71  2.0117689
669.71  1.6890056
668.71  1.4972926
667.71  2.1241073
666.71  2.0792659
665.71  1.6602964
664.71  1.6095788
663.71  1.3461125
662.71  1.4056318
661.71  1.2668655
660.71  1.5099796
659.71  1.5687607
658.71  1.5281998
657.71  1.6374589
656.71  1.5744617
655.71  1.5276059
654.71  1.5064009
653.71  1.5209976
652.71  1.9183324
651.71  1.4930554
650.71  1.5092745
649.71  1.2840162
648.71  1.6729209
647.71  1.4289758
646.71  1.2715988
645.71  1.7063645
644.71  1.6497189
643.71  1.1801709
642.71  1.4014856
641.71  1.6396216
640.71  2.0554854
639.71  1.4243506
638.71  1.164194
637.71  1.3824771
636.71  1.5212304
635.71  1.415026
634.71  1.7072723
633.71  1.3736778
632.71  1.6641983
631.71  1.4096805
630.71  1.316697
629.71  1.6675361
628.71  1.372255
627.71  2.0102579
626.71  1.200712
625.71  1.1971002
624.71  1.2845194
623.71  2.4151052
622.71  1.8688816
621.71  1.4908581
620.71  1.3243493
619.71  1.7216837
618.71  1.6750315
617.71  1.5961711
616.71  1.6072014
615.71  1.3072078
614.71  1.6296542
613.71  1.6894106
612.71  1.39639
611.71  1.4880548
610.71  1.3236956
609.71  1.5939586
608.71  1.3473789
607.71  1.028223
606.71  1.3692618
605.71  1.8704471
604.71  1.895129
603.71  1.3665822
602.71  1.8337234
601.71  1.5868909
600.71  1.807986
599.71  1.5126393
598.71  1.6129759
597.71  1.7822562
596.71  1.7606498
595.71  1.8072306
594.71  1.7540618
593.71  1.8063127
592.71  1.5986504
591.71  1.6326115
590.71  1.6573325
589.71  1.7238694
588.71  1.5090213
587.71  1.4577483
586.71  1.8910824
585.71  2.0814601
584.71  1.7799445
583.71  2.2743742
582.71  1.8148225
581.71  2.1421953
580.71  2.2289321
579.71  1.3049536
578.71  1.6523423
577.71  1.6290825
576.71  2.2183156
575.71  1.8857404
574.71  2.0996668
573.71  2.0247255
572.71  1.7445088
571.71  1.8790375
570.71  1.7247146
569.71  1.7619091
568.71  2.4871672
567.71  1.9236121
566.71  2.2276991
565.71  1.5451688
564.71  2.3112008
563.71  2.1857457
562.71  2.0541597
561.71  2.3638581
560.71  1.8610954
559.71  1.8894249
558.71  2.3585739
557.71  2.121459
556.71  2.3031961
555.71  1.6286936
554.71  1.3772182
553.71  1.4580802
552.71  1.5931976
551.71  1.443797
550.71  1.5146257
549.71  1.6343978
548.71  1.5867223
547.71  1.7211635
546.71  1.4676915
545.71  1.61021
544.71  1.4162058
543.71  2.1249094
542.71  3.2651913
541.71  2.233572
540.71  2.7692083
539.71  1.4834121
538.71  1.6605404
537.71  1.7866745
536.71  1.9565739
535.71  1.9917198
534.71  2.4007833
533.71  3.5386761
532.71  2.5147903
531.71  2.3561606
530.71  2.0356844
529.71  1.8440449
528.71  1.800476
527.71  1.5636471
526.71  1.7888684
525.71  1.80726
524.71  2.2141161
523.71  2.0085175
522.71  1.8869009
521.71  1.972924
520.71  1.3747498
519.71  1.310903
518.71  1.78513
517.71  1.5532807
516.71  2.2235234
515.71  2.068366
514.71  1.5310629
513.71  1.7925359
512.71  1.8922078
511.71  1.569068
510.71  1.3189142
509.71  1.8391102
508.71  1.3886522
507.71  1.5230041
506.71  1.8012488
505.71  1.9240219
504.71  1.9640784
503.71  1.9406793
502.71  2.0926037
501.71  2.1910914
500.71  2.2268176
499.71  1.8820591
498.71  1.8283935
497.71  1.7521881
496.71  2.4664261
495.71  2.0804807
494.71  2.3384275
493.71  2.3275349
492.71  2.0749538
491.71  2.2630423
490.71  2.0140412
489.71  1.8954686
488.71  2.4368128
487.71  3.0086416
486.71  3.2923576
485.71  2.241761
484.71  2.3996861
483.71  2.2292442
482.71  2.9935608
481.71  2.6496968
480.71  1.8389881
479.71  1.7811563
478.71  2.2094701
477.71  1.9522367
476.71  2.2303834
475.71  1.9191712
474.71  1.8940011
473.71  2.5486576
472.71  2.2167499
471.71  1.9860074
470.71  1.906592
469.71  2.5090682
468.71  3.0878392
467.71  2.399427
466.71  2.1923144
465.71  1.9993155
464.71  2.1519752
463.71  1.6812784
462.71  1.6372694
461.71  2.0917995
460.71  2.0130134
459.71  1.8293214
458.71  2.2557695
457.71  2.1387828
456.71  2.6876405
455.71  2.1846264
454.71  2.0665867
453.71  2.0292803
452.71  2.293801
451.71  2.3204546
450.71  1.8375566
449.71  2.3777871
448.71  2.1570024
447.71  2.5239287
446.71  2.5088731
445.71  1.9797429
444.71  2.1031303
443.71  2.5167659
442.71  3.5238237
441.71  2.3152445
440.71  1.687827
439.71  2.1616333
438.71  1.8872904
437.71  2.0243808
436.71  3.2832105
435.71  2.5980724
434.71  2.0197293
433.71  1.979199
432.71  1.7525131
431.71  2.2581139
430.71  2.4966496
429.71  1.9717939
428.71  1.8682921
427.71  2.1568807
426.71  2.4869968
425.71  2.3238832
424.71  2.0401229
423.71  2.4224812
422.71  2.6217392
421.71  2.4036175
420.71  2.0077686
419.71  2.1156553
418.71  2.3841922
417.71  1.822231
416.71  2.0723841
415.71  1.7350903
414.71  2.0504468
413.71  1.8204954
412.71  2.3724246
411.71  2.7927134
410.71  1.7461265
409.71  2.2368739
408.71  2.9920095
407.71  2.5963168
406.71  2.6650145
405.71  2.8703379
404.71  2.3153897
403.71  2.5073712
402.71  2.0849702
401.71  2.599031
400.71  2.5554168
399.71  2.0277336
398.71  1.8130418
397.71  2.2917625
396.71  2.6003926
395.71  2.5277603
394.71  2.2114281
393.71  1.7238094
392.71  1.6781559
391.71  2.3710866
390.71  2.3771548
389.71  2.3504279
388.71  2.0559195
387.71  2.6340866
386.71  2.7779885
385.71  2.578067
384.71  2.2682981
383.71  2.250107
382.71  2.4247787
381.71  2.5741337
380.71  2.6282992
379.71  2.5803401
378.71  2.1320781
377.71  1.9213238
376.71  2.082954
375.71  2.4407263
374.71  2.5850146
373.71  2.6331284
372.71  2.3193392
371.71  2.4469198
370.71  2.5694578
369.71  2.6993603
368.71  2.4309128
367.71  2.1751788
366.71  2.5359769
365.71  2.4619419
364.71  2.6683891
363.71  2.5183559
362.71  3.9847192
361.71  3.3178089
360.71  2.3665978
359.71  2.1714002
358.71  2.5888646
357.71  2.8231505
356.71  2.5818631
355.71  2.3329656
354.71  2.1402275
353.71  3.0073974
352.71  3.5739166
351.71  2.4039671
350.71  2.2937029
349.71  2.3159731
348.71  2.0470897
347.71  3.0117915
346.71  2.4204759
345.71  2.2068748
344.71  2.6180788
343.71  2.9022512
342.71  2.6832753
341.71  2.1864945
340.71  2.8269836
339.71  2.7318209
338.71  2.063138
337.71  1.798658
336.71  2.1378297
335.71  2.6270392
334.71  2.5903624
333.71  2.114491
332.71  2.2365622
331.71  2.5919057
330.71  1.9770738
329.71  2.0135393
328.71  2.2836878
327.71  2.2752067
326.71  2.2863614
325.71  1.9006776
324.71  2.1483609
323.71  1.7589964
322.71  1.7198668
321.71  1.8491621
320.71  2.0667831
319.71  1.7117778
318.71  2.1711421
317.71  1.8363409
316.71  1.76373
315.71  1.9809339
314.71  1.9478659
313.71  2.5577509
312.71  2.6365254
311.71  2.4725037
310.71  2.2027931
309.71  1.7441431
308.71  2.2513629
307.71  2.0684698
306.71  2.4228443
305.71  2.1345313
304.71  1.9926763
303.71  3.3826793
302.71  2.1940811
301.71  2.0455468
300.71  2.3829248
299.71  2.2124248
298.71  1.6146971
297.71  1.8917995
296.71  2.0651838
295.71  2.2413467
294.71  2.2274083
293.71  2.2732359
292.71  4.6030391
291.71  1.793205
290.71  1.7180343
289.71  2.0839261
288.71  2.1266908
287.71  1.877561
286.71  2.5525777
285.71  2.3728508
284.71  1.8158777
283.71  1.7333304
282.71  1.6896177
281.71  1.9408297
280.71  1.799558
279.71  1.6675409
278.71  1.7752101
277.71  1.8305705
276.71  1.874659
275.71  1.8218145
274.71  1.8077399
273.71  1.7709642
272.71  1.423431
271.71  1.3095863
270.71  1.4841718
269.71  1.5880532
268.71  1.7394633
267.71  1.7004828
266.71  1.5118803
265.71  2.436589
264.71  1.5679619
263.71  1.8026514
262.71  1.8763183
261.71  1.9885446
260.71  1.7412822
259.71  1.5906862
258.71  1.5280468
257.71  1.6720487
256.71  1.5716759
255.71  1.3253667
254.71  2.0284582
253.71  2.2119863
252.71  2.3666762
251.71  2.2630226
250.71  1.5610505
249.71  1.8314759
248.71  1.4707133
247.71  1.8084715
246.71  1.7173623
245.71  1.1727738
244.71  1.6050177
243.71  1.7696031
242.71  1.6196239
241.71  1.5923454
240.71  1.663792
239.71  2.2047556
238.71  2.9949685
237.71  2.5528395
236.71  2.3393032
235.71  2.0155415
234.71  1.4435402
233.71  1.2120615
232.71  1.7263086
231.71  1.9974708
230.71  1.7923359
229.71  1.7006851
228.71  2.0438658
227.71  2.2929528
226.71  2.7846539
225.71  1.4371149
224.71  1.9372106
223.71  1.568713
222.71  1.4025333
221.71  1.3098669
220.71  0.79125361
219.71  1.160503
218.71  1.109671
217.71  1.1534789
216.71  0.9630489
215.71  1.148943
214.71  1.3604084
213.71  1.0346261
212.71  1.2683665
211.71  1.201192
210.71  1.038972
209.71  0.91173177
208.71  0.98476587
207.71  1.0415488
206.71  0.81538415
205.71  0.93636334
204.71  0.93837709
203.71  0.92087836
202.71  0.75917658
201.71  0.77773139
200.71  0.92594037
199.71  1.0124894
198.71  0.9809456
197.71  0.78198455
196.71  0.65849138
195.71  1.0073488
194.71  0.87644032
193.71  0.92115143
192.71  0.80602288
191.71  1.8450028
190.71  1.1705736
189.71  1.459866
188.71  2.341932
187.71  0.82948088
186.71  0.92503432
185.71  0.87237317
184.71  0.65600231
183.71  0.65742881
182.71  0.8466087
181.71  0.92893187
180.71  0.63766244
179.71  0.81405866
178.71  0.97133171
177.71  0.71859713
176.71  0.80904223
175.71  0.66035014
174.71  0.83804891
173.71  0.79407005
172.71  0.67023426
171.71  0.63100043
170.71  0.58746826
169.71  0.57698874
168.71  0.63748158
167.71  0.68451287
166.71  0.61888991
165.71  2.4991504
164.71  1.0678936
163.71  0.70810747
162.71  0.65037049
161.71  0.71218307
160.71  0.76753005
159.71  0.82273539
158.71  0.68373428
157.71  0.723678
156.71  0.6789852
155.71  0.99474302
154.71  0.67484368
153.71  0.66498353
152.71  0.66945903
151.71  0.76474553
150.71  0.85606122
149.71  0.70568802
148.71  0.67302053
147.71  0.79597941
146.71  0.58345919
145.71  0.73771615
144.71  0.76616532
143.71  1.4411517
142.71  1.0754712
141.71  0.94223315
140.71  0.74544458
139.71  0.71929798
138.71  0.69856789
137.71  0.73450762
136.71  0.62423691
135.71  0.58010163
134.71  0.5990442
133.71  0.86530423
132.71  0.91197811
131.71  0.64530864
130.71  1.0062953
129.71  0.77496834
128.71  1.0295949
127.71  0.83336894
126.71  0.85727542
125.71  0.71347591
124.71  0.79685272
123.71  0.68855001
122.71  0.60045852
121.71  0.67382633
120.71  0.8096487
119.71  0.76684772
118.71  0.9075523
117.71  0.7853404
116.71  0.68389447
115.71  0.72194253
114.71  0.8102451
113.71  0.5977925
112.71  0.78135674
111.71  0.74871023
110.71  0.70081032
109.71  0.8835501
108.71  0.72968001
107.71  0.58940894
106.71  0.98056805
105.71  0.85176996
104.71  0.84731287
103.71  0.61704556
102.71  0.71756966
101.71  0.57292838
100.71  1.9511763
99.71  1.7632681
98.71  0.99338956
97.71  0.66512131
96.71  0.60452454
95.71  0.97678512
94.71  0.84321449
93.71  0.73182561
92.71  0.78780151
91.71  1.1875826
90.71  1.3642764
89.71  0.90299659
88.71  1.082126
87.71  0.80276539
86.71  0.80941149
85.71  0.94649248
84.71  0.82359381
83.71  0.82827103
82.71  0.86061834
81.71  0.88193439
80.71  0.99910088
79.71  0.77948491
78.71  0.73512492
77.71  0.87196292
76.71  1.0471626
75.71  0.89273954
74.71  0.8214384
73.71  0.64186487
72.71  0.65875739
71.71  0.69350734
70.71  0.71707054
69.71  0.67487987
68.71  0.7775642
67.71  1.0023547
66.71  0.84261526
65.71  1.1092384
64.71  1.1153125
63.71  0.8943377
62.71  1.1010895
61.71  0.77760445
60.71  1.1681978
59.71  0.73424341
58.71  0.79908985
57.71  0.94617632
56.71  1.1868636
55.71  0.7505501
54.71  1.0898035
53.71  1.2848763
52.71  0.86929817
51.71  0.715764
50.71  0.89258532
49.71  0.96462069
48.71  0.97063416
47.71  1.2676765
46.71  1.1976467
45.71  1.3415907
44.71  1.1759422
43.71  0.99878285
42.71  1.1800207
41.71  0.79123611
40.71  0.82016372
39.71  1.0411714
38.71  0.78798611
37.71  0.81750604
36.71  0.8501985
35.71  0.89047901
34.71  0.87209925
33.71  0.9675059
32.71  0.94438569
31.71  1.0486543
30.71  1.0499175
29.71  1.0237358
28.71  0.94667105
27.71  1.1376487
26.71  1.1252869
25.71  2.1365548
24.71  1.8719863
23.71  2.386763
22.71  2.0528792
21.71  1.3057149
20.71  0.56723262
19.71  0.44598745
18.71  0.44866474
17.71  0.47134925
16.71  0.46975318
15.71  0.47911961
14.71  0.4900175
13.71  0.45589443
12.71  0.43238222
11.71  0.43798805
10.71  0.45351978
9.71  0.53102138
8.71  0.61971804
7.71  0.45902717
6.71  0.45645398
5.71  0.46599219
4.71  0.50543722
3.71  0.50016598
2.71  0.49547379
1.71  0.52041302
0.71  0.46571265
-0.29  0.6308389
-1.29  0.68461363
-2.29  0.49755725
-3.29  0.46826926

# Region:            overview (6)
# Spectrum ID:       30
# Acquisition Date:  06/24/22 13:08:26 UTC
# Analysis Method:   XPS
# Analyzer:          Analyzer
# Analyzer Lens:     MediumArea:1.5kV
# Analyzer Slit:     4:3x20\B:open
# Scan Mode:         FixedAnalyzerTransmission
# Curves/Scan:       1
# Values/Curve:      941
# Dwell Time:        0.1
# Excitation Energy: 1486.71
# Binding Energy:    936.71
# Pass Energy:       50
# Bias Voltage:      -1
# Detector Voltage:  1800
# Eff. Workfunction: 4.498
# Source:            XR 50 MF (UXC1000)
# Comment:
# OrdinateRange:     [-7.000000, 7.000000]
#
# Cycle: 0
# Number of Scans: 1
#
# Cycle: 0, Curve: 0
# Acquisition Date: 06/24/22 13:08:26 UTC
#
# ColumnLabels: energy counts/s
#
936.71  3.9332626
935.71  5.3252386
934.71  4.185686
933.71  4.4061345
932.71  4.7342285
931.71  3.6299709
930.71  4.493967
929.71  4.7919985
928.71  4.2571461
927.71  4.9322499
926.71  4.7707026
925.71  5.8996926
924.71  5.356305
923.71  5.5135841
922.71  3.9160291
921.71  4.0986775
920.71  4.1377991
919.71  4.2606437
918.71  4.8431678
917.71  5.0269383
916.71  4.4345689
915.71  4.9285177
914.71  4.7688644
913.71  5.1761532
912.71  4.8289157
911.71  5.1080964
910.71  4.8318507
909.71  5.3806217
908.71  6.2385959
907.71  4.4057358
906.71  4.1425964
905.71  5.2292709
904.71  4.856205
903.71  4.3144945
902.71  4.3863659
901.71  4.7269338
900.71  4.3137297
899.71  4.5710907
898.71  4.9753395
897.71  5.3368779
896.71  4.5256509
895.71  5.0417592
894.71  5.2424578
893.71  4.8235337
892.71  5.0650231
891.71  4.8476487
890.71  4.8469866
889.71  5.8692067
888.71  5.5455069
887.71  5.0678133
886.71  5.6246521
885.71  5.4182611
884.71  4.8764053
883.71  5.9129438
882.71  6.428953
881.71  5.3983234
880.71  4.5768911
879.71  4.8005188
878.71  5.4724847
877.71  6.0887476
876.71  5.3975247
875.71  5.7187532
874.71  5.4504402
873.71  5.5255594
872.71  5.5920163
871.71  5.7048532
870.71  5.5291447
869.71  5.8283663
868.71  5.8672492
867.71  5.6237747
866.71  5.5577499
865.71  6.2704811
864.71  5.6164116
863.71  7.138053
862.71  5.9849974
861.71  5.861144
860.71  5.9519912
859.71  5.8689722
858.71  5.9025072
857.71  5.6895763
856.71  5.5762489
855.71  5.9736067
854.71  6.5413448
853.71  6.5971642
852.71  6.3459421
851.71  6.8405955
850.71  6.6671415
849.71  6.0713398
848.71  6.457774
847.71  6.5689283
846.71  7.0858202
845.71  5.6565537
844.71  6.9882177
843.71  7.4033267
842.71  6.710376
841.71  6.4529464
840.71  6.2221496
839.71  6.1023533
838.71  6.6051686
837.71  7.0417161
836.71  7.1417464
835.71  6.8810956
834.71  5.9726978
833.71  5.5306278
832.71  5.634243
831.71  6.452021
830.71  6.2660948
829.71  6.5909201
828.71  7.116348
827.71  7.1848472
826.71  6.4527772
825.71  7.0985407
824.71  6.8787692
823.71  6.557752
822.71  6.6417263
821.71  7.6185901
820.71  7.3218096
819.71  6.5292604
818.71  6.7270785
817.71  6.4751178
816.71  6.3558287
815.71  5.9867341
814.71  8.1433631
813.71  7.3042847
812.71  7.3350248
811.71  7.6628821
810.71  6.9221855
809.71  6.3716256
808.71  6.1481013
807.71  6.9079385
806.71  7.6507214
805.71  7.9350761
804.71  5.5783372
803.71  5.9229636
802.71  7.2940879
801.71  7.8458629
800.71  7.7130466
799.71  6.7125004
798.71  7.4454579
797.71  7.2957549
796.71  7.7871623
795.71  6.0440124
794.71  5.8331625
793.71  7.6494754
792.71  7.2633878
791.71  8.2510183
790.71  8.4023857
789.71  6.6377116
788.71  6.8213395
787.71  7.1516808
786.71  7.9507388
785.71  7.9853189
784.71  7.7304166
783.71  7.7203864
782.71  8.050804
781.71  7.7451449
780.71  7.9745537
779.71  7.9027123
778.71  8.2538083
777.71  7.9685217
776.71  9.0253023
775.71  8.3515783
774.71  8.1756048
773.71  7.8003574
772.71  8.0798381
771.71  8.3757002
770.71  8.1744506
769.71  7.9001093
768.71  8.2274327
767.71  8.5759014
766.71  8.2184122
765.71  7.926087
764.71  9.3127549
763.71  8.9875101
762.71  8.8869089
761.71  8.4455078
760.71  8.744925
759.71  9.3399652
758.71  8.7283643
757.71  8.2543513
756.71  9.5312015
755.71  10.055387
754.71  8.8196118
753.71  8.9466403
752.71  7.3309414
751.71  8.4364867
750.71  8.2467309
749.71  8.3838428
748.71  10.669085
747.71  9.3182652
746.71  7.8901594
745.71  9.9788152
744.71  9.6187531
743.71  8.8306045
742.71  9.6175334
741.71  9.2310074
740.71  9.178195
739.71  9.2218505
738.71  9.6532487
737.71  10.125526
736.71  9.4692865
735.71  9.847869
734.71  10.911427
733.71  9.8209622
732.71  8.7753192
731.71  10.403272
730.71  9.573632
729.71  8.5007767
728.71  9.0440107
727.71  7.8114519
726.71  8.0313745
725.71  8.2532322
724.71  8.2489588
723.71  7.9008127
722.71  7.976214
721.71  7.6303307
720.71  8.0781671
719.71  8.3783892
718.71  9.6205912
717.71  11.156834
716.71  11.421898
715.71  12.279524
714.71  13.249333
713.71  12.968487
712.71  11.611003
711.71  12.293965
710.71  13.494388
709.71  11.827334
708.71  10.698057
707.71  11.387493
706.71  11.099648
705.71  8.9901327
704.71  8.9708757
703.71  9.0714158
702.71  10.187597
701.71  9.9291547
700.71  7.1674426
699.71  8.2466677
698.71  9.098993
697.71  8.41267
696.71  8.6034581
695.71  8.2081213
694.71  8.2351892
693.71  7.4208509
692.71  6.8583024
691.71  7.3161648
690.71  6.0331736
689.71  7.5045172
688.71  7.6780595
687.71  7.3339216
686.71  6.4178798
685.71  5.7120186
684.71  5.6650181
683.71  5.8020607
682.71  5.6926217
681.71  5.943421
680.71  6.3074427
679.71  4.8788804
678.71  5.328592
677.71  5.448795
676.71  4.9825238
675.71  5.0322631
674.71  4.3419167
673.71  4.0220503
672.71  4.3007636
671.71  4.8434024
670.71  4.492609
669.71  5.3356015
668.71  5.5339939
667.71  4.7468169
666.71  4.7776376
665.71  4.4029794
664.71  4.1579384
663.71  4.2007645
662.71  5.108025
661.71  4.0923917
660.71  4.585682
659.71  5.0038852
658.71  4.6919079
657.71  4.6107404
656.71  4.6734715
655.71  4.9530176
654.71  5.2284874
653.71  4.571347
652.71  4.7279942
651.71  4.9241043
650.71  4.7241801
649.71  4.9421768
648.71  4.3308461
647.71  5.1645566
646.71  4.7408378
645.71  5.4789341
644.71  5.2289106
643.71  4.6913899
642.71  5.2713576
641.71  4.8752262
640.71  4.2913814
639.71  4.3279684
638.71  4.6414098
637.71  4.5741756
636.71  4.8802653
635.71  5.1721979
634.71  5.0168061
633.71  4.6175099
632.71  5.1876935
631.71  5.4218578
630.71  3.7291878
629.71  3.9654453
628.71  3.904697
627.71  4.0572201
626.71  4.4649369
625.71  5.0784679
624.71  5.9570544
623.71  5.921189
622.71  5.1351343
621.71  4.0656363
620.71  4.4050339
619.71  5.2159742
618.71  5.24771
617.71  5.5340096
616.71  5.8847855
615.71  4.5982338
614.71  4.8798133
613.71  4.7415841
612.71  4.8050259
611.71  4.6190601
610.71  4.7702031
609.71  4.9016053
608.71  5.0921681
607.71  4.6488615
606.71  5.1805662
605.71  4.4806219
604.71  5.1041692
603.71  5.1856364
602.71  5.7489617
601.71  5.8977483
600.71  5.283199
599.71  5.474242
598.71  4.6060499
597.71  5.872181
596.71  6.5124609
595.71  5.5778045
594.71  4.7886413
593.71  4.9279189
592.71  5.2179787
591.71  5.9172552
590.71  5.4935835
589.71  5.7231598
588.71  5.5110435
587.71  5.5514298
586.71  5.160926
585.71  5.4249686
584.71  5.5030914
583.71  5.1737625
582.71  4.7950528
581.71  4.6368673
580.71  4.988724
579.71  4.8281683
578.71  4.8562158
577.71  6.1343846
576.71  5.1081201
575.71  5.160778
574.71  6.4838923
573.71  4.9152981
572.71  4.7124158
571.71  5.619243
570.71  7.0673919
569.71  6.3274078
568.71  6.0753566
567.71  5.9847963
566.71  5.7281428
565.71  5.4622915
564.71  5.2748051
563.71  5.0566438
562.71  5.3721918
561.71  6.0243857
560.71  5.9211377
559.71  5.6908935
558.71  5.8208144
557.71  5.610499
556.71  5.4554266
555.71  5.3889514
554.71  5.8791754
553.71  5.3344476
552.71  5.0498651
551.71  5.0237833
550.71  6.2384013
549.71  6.0582264
548.71  5.8547595
547.71  5.6748433
546.71  5.6895347
545.71  5.7144707
544.71  4.7698577
543.71  4.9711372
542.71  5.7669392
541.71  4.910936
540.71  5.1134953
539.71  5.643244
538.71  5.0501915
537.71  5.6541654
536.71  5.9953644
535.71  5.6946358
534.71  5.6995135
533.71  7.0559528
532.71  7.6092597
531.71  7.4275516
530.71  6.7067413
529.71  4.9657471
528.71  5.4503146
527.71  4.9687717
526.71  5.4740708
525.71  5.2656371
524.71  4.7406104
523.71  6.3365391
522.71  5.4709648
521.71  4.8026882
520.71  4.9906805
519.71  4.4339852
518.71  5.2893597
517.71  5.0849157
516.71  5.2349767
515.71  6.8567744
514.71  6.2228114
513.71  5.1080799
512.71  5.7201373
511.71  6.7410485
510.71  5.5134756
509.71  5.3016324
508.71  5.7999257
507.71  5.7934601
506.71  5.7015656
505.71  5.6876058
504.71  5.4092013
503.71  6.1007989
502.71  5.4044034
501.71  5.4668928
500.71  5.9848397
499.71  5.6028045
498.71  5.5937849
497.71  5.4712682
496.71  6.2075192
495.71  5.5105848
494.71  6.4365769
493.71  5.5647786
492.71  5.7274956
491.71  5.0680912
490.71  5.4962869
489.71  6.2544994
488.71  5.7456895
487.71  5.6902343
486.71  5.5063997
485.71  5.9231558
484.71  5.7415116
483.71  4.9832967
482.71  5.4136428
481.71  6.1913509
480.71  6.0120492
479.71  4.6810049
478.71  5.818636
477.71  5.5822046
476.71  5.860289
475.71  6.1418884
474.71  5.7386448
473.71  5.420245
472.71  5.4009257
471.71  5.774988
470.71  6.7926485
469.71  5.186066
468.71  6.2524486
467.71  6.57005
466.71  6.1795854
465.71  6.5404611
464.71  8.1143268
463.71  7.3239198
462.71  7.3650236
461.71  6.8961433
460.71  7.2713728
459.71  6.6807212
458.71  6.5637147
457.71  6.7718416
456.71  5.8155372
455.71  6.3795722
454.71  5.9850608
453.71  5.9395945
452.71  5.1348711
451.71  6.5466606
450.71  5.9681943
449.71  5.9096642
448.71  5.3649548
447.71  5.9320592
446.71  5.4295054
445.71  5.6248237
444.71  5.428818
443.71  5.8656495
442.71  5.4300872
441.71  5.5216894
440.71  6.0853254
439.71  6.1278209
438.71  7.953267
437.71  5.417604
436.71  6.1685806
435.71  5.9953044
434.71  7.7141971
433.71  6.8873579
432.71  5.9384001
431.71  6.3338354
430.71  6.0559292
429.71  5.4546984
428.71  6.2630253
427.71  6.8813674
426.71  6.0517507
425.71  7.0508946
424.71  6.3167704
423.71  5.7719944
422.71  5.4325378
421.71  6.811714
420.71  5.6709181
419.71  6.2846307
418.71  5.8401663
417.71  6.0551041
416.71  6.2309665
415.71  5.580523
414.71  6.7840376
413.71  7.0770318
412.71  6.9062438
411.71  6.1747298
410.71  7.2520045
409.71  6.457098
408.71  5.7262413
407.71  7.1926348
406.71  8.5537225
405.71  7.2274131
404.71  6.4492209
403.71  7.7975887
402.71  7.8583522
401.71  7.9948415
400.71  8.198178
399.71  7.6724187
398.71  6.7719212
397.71  6.4541996
396.71  6.6141209
395.71  6.3289832
394.71  5.8304158
393.71  6.0927788
392.71  5.57437
391.71  5.4281949
390.71  6.6481224
389.71  6.1759919
388.71  6.2210717
387.71  5.7023821
386.71  5.0380776
385.71  5.2866719
384.71  5.648722
383.71  6.2915661
382.71  6.0753361
381.71  5.8233216
380.71  5.3907964
379.71  5.4948585
378.71  5.3128779
377.71  5.4355531
376.71  5.0039009
375.71  5.3712994
374.71  5.8873263
373.71  5.5787415
372.71  5.4973041
371.71  5.736766
370.71  5.8586286
369.71  5.5681825
368.71  5.1010321
367.71  5.4300289
366.71  5.1224003
365.71  5.4626105
364.71  5.8452597
363.71  5.323658
362.71  5.1187596
361.71  5.6697939
360.71  5.6300258
359.71  5.4045521
358.71  5.9772073
357.71  5.5386049
356.71  5.3951806
355.71  5.6479851
354.71  5.6489581
353.71  6.0787025
352.71  5.7304313
351.71  6.9096978
350.71  6.6408881
349.71  6.2595062
348.71  6.4387937
347.71  7.3142578
346.71  5.560279
345.71  5.6566569
344.71  5.1721991
343.71  6.4102151
342.71  7.0882537
341.71  7.8679233
340.71  7.0868853
339.71  6.0461691
338.71  6.286821
337.71  5.325709
336.71  5.7723443
335.71  6.84793
334.71  5.91041
333.71  7.2629064
332.71  7.7405079
331.71  7.1425288
330.71  7.4710087
329.71  7.3054991
328.71  7.5791607
327.71  6.7195614
326.71  6.9263103
325.71  8.1857264
324.71  6.9375507
323.71  6.277279
322.71  8.1758699
321.71  7.4789294
320.71  6.2954129
319.71  5.8485962
318.71  6.6520969
317.71  7.3622217
316.71  7.1280004
315.71  5.8882288
314.71  6.1228739
313.71  6.6550017
312.71  6.4037904
311.71  5.8096235
310.71  5.8554411
309.71  5.5145942
308.71  6.8433414
307.71  6.2484271
306.71  6.480825
305.71  6.1239277
304.71  6.2745641
303.71  5.8335774
302.71  5.092927
301.71  5.3099624
300.71  6.421874
299.71  6.327716
298.71  7.7668811
297.71  7.2186421
296.71  7.0269241
295.71  5.354223
294.71  5.3314935
293.71  5.5072379
292.71  6.2365138
291.71  4.8100142
290.71  5.4955336
289.71  5.7847811
288.71  6.0696344
287.71  6.2083236
286.71  8.6780204
285.71  7.0872597
284.71  6.1521765
283.71  5.4972816
282.71  5.3932377
281.71  7.0353933
280.71  6.5898689
279.71  6.0059575
278.71  7.6443487
277.71  7.395821
276.71  8.2605327
275.71  6.2200068
274.71  6.7317208
273.71  6.4566406
272.71  6.6112551
271.71  5.8271024
270.71  7.4580363
269.71  5.7347374
268.71  6.7986618
267.71  6.4160922
266.71  6.0464224
265.71  6.5444857
264.71  5.5263597
263.71  6.0725511
262.71  6.4376603
261.71  5.7828065
260.71  6.06147
259.71  6.537843
258.71  5.8801795
257.71  5.5250707
256.71  5.9072323
255.71  6.52276
254.71  5.9317774
253.71  6.3513475
252.71  6.6408002
251.71  5.4027804
250.71  5.5979619
249.71  5.6718897
248.71  4.9934604
247.71  4.5894135
246.71  5.9368193
245.71  6.2879509
244.71  7.1419893
243.71  5.8488784
242.71  7.4236768
241.71  8.1962803
240.71  7.8011309
239.71  8.0272826
238.71  8.4581649
237.71  7.489204
236.71  6.2224746
235.71  4.6594679
234.71  5.1374186
233.71  5.5164012
232.71  5.4090259
231.71  4.822498
230.71  6.302006
229.71  7.9100742
228.71  7.8875239
227.71  8.3754014
226.71  8.6841911
225.71  7.4706923
224.71  5.9500972
223.71  4.1496078
222.71  3.4314892
221.71  3.1439174
220.71  2.9310323
219.71  3.2243995
218.71  2.5095544
217.71  2.7339803
216.71  2.5374642
215.71  2.2977766
214.71  2.3225018
213.71  2.1593005
212.71  2.7297765
211.71  2.7096882
210.71  2.5821247
209.71  2.5289873
208.71  2.2671455
207.71  2.6830418
206.71  2.5783002
205.71  2.1851702
204.71  2.1350953
203.71  2.0138891
202.71  2.2884619
201.71  2.3916094
200.71  2.7905832
199.71  3.7522849
198.71  2.689886
197.71  2.6411767
196.71  2.4927733
195.71  3.0379752
194.71  2.3769752
193.71  2.3780378
192.71  2.2214414
191.71  2.7386868
190.71  2.2708008
189.71  2.4980687
188.71  2.8050167
187.71  2.2455355
186.71  2.1737289
185.71  2.0691567
184.71  2.2326645
183.71  2.1787224
182.71  2.518939
181.71  2.8968262
180.71  2.5819181
179.71  2.3804279
178.71  2.3060347
177.71  2.2543792
176.71  2.5269863
175.71  2.1956159
174.71  1.859558
173.71  2.1951405
172.71  2.1960035
171.71  2.0243622
170.71  2.4479965
169.71  2.3003622
168.71  1.8306579
167.71  1.9259535
166.71  2.263194
165.71  2.235944
164.71  2.2653959
163.71  2.1134392
162.71  1.8821026
161.71  1.9282744
160.71  2.0484455
159.71  1.995137
158.71  1.559185
157.71  1.8052026
156.71  1.8191974
155.71  1.6186948
154.71  1.7880855
153.71  2.0379948
152.71  1.7684428
151.71  1.9583052
150.71  2.0289753
149.71  1.8657893
148.71  2.2841265
147.71  2.058965
146.71  1.6633938
145.71  2.124289
144.71  2.0377447
143.71  2.4066507
142.71  1.9038938
141.71  2.0592143
140.71  2.0666145
139.71  1.8298286
138.71  1.831831
137.71  2.1006979
136.71  2.0586657
135.71  1.5624714
134.71  1.818254
133.71  1.6354226
132.71  1.8190314
131.71  2.0620089
130.71  1.8985709
129.71  1.9732115
128.71  2.2269955
127.71  2.1184748
126.71  1.8281484
125.71  2.0435768
124.71  1.7604693
123.71  1.6781066
122.71  2.0662889
121.71  2.0526355
120.71  1.6309222
119.71  2.1623966
118.71  2.3392766
117.71  2.2735257
116.71  2.3721728
115.71  2.2965515
114.71  2.3125971
113.71  2.335032
112.71  1.6796284
111.71  2.0064378
110.71  1.9364762
109.71  2.4562451
108.71  2.7290274
107.71  1.8205761
106.71  1.9220472
105.71  2.4217005
104.71  1.7251865
103.71  1.8406229
102.71  1.9104055
101.71  2.2041436
100.71  2.0137122
99.71  2.3900407
98.71  2.106447
97.71  2.2715368
96.71  1.9501383
95.71  2.0510498
94.71  1.959851
93.71  2.2920483
92.71  2.1366977
91.71  1.704799
90.71  1.9437852
89.71  1.8075402
88.71  2.3449625
87.71  2.2623041
86.71  2.8508425
85.71  2.6426016
84.71  3.2484939
83.71  2.6142434
82.71  2.1722544
81.71  2.5082652
80.71  2.6038894
79.71  2.1188398
78.71  2.4643949
77.71  2.3982613
76.71  2.857754
75.71  2.1995816
74.71  2.8934737
73.71  2.2521946
72.71  2.6161626
71.71  3.1159741
70.71  2.6483032
69.71  2.6958419
68.71  2.6577876
67.71  3.5076736
66.71  3.1754159
65.71  2.7047995
64.71  2.2859545
63.71  2.1784116
62.71  2.2482311
61.71  2.1733015
60.71  2.2445851
59.71  1.8485638
58.71  2.3329164
57.71  2.3103555
56.71  1.4087476
55.71  1.937157
54.71  2.3693494
53.71  2.531821
52.71  3.1877752
51.71  2.9572104
50.71  2.6706704
49.71  2.8654916
48.71  3.0587212
47.71  3.111562
46.71  3.5167916
45.71  2.8172012
44.71  3.7688323
43.71  3.8001633
42.71  3.4749334
41.71  2.5585718
40.71  3.1332715
39.71  2.8807915
38.71  2.5534783
37.71  3.0686757
36.71  2.3525996
35.71  2.4654428
34.71  3.1707034
33.71  2.8813964
32.71  3.0224981
31.71  2.5615962
30.71  2.2427584
29.71  1.7787651
28.71  2.8223597
27.71  4.0104581
26.71  4.8361866
25.71  6.2071227
24.71  9.7626699
23.71  10.168652
22.71  9.2879594
21.71  4.9091473
20.71  0.8147614
19.71  0.7765684
18.71  0.82047496
17.71  0.5483216
16.71  0.65671681
15.71  0.55818981
14.71  0.59267247
13.71  0.62521312
12.71  0.59061315
11.71  0.63631443
10.71  0.75893841
9.71  0.51588157
8.71  0.53044821
7.71  0.64957698
6.71  0.63322369
5.71  0.56749425
4.71  0.58414343
3.71  0.71829132
2.71  1.0164836
1.71  0.97556911
0.71  0.88151083
-0.29  0.46370662
-1.29  0.45033192
-2.29  0.45796599
-3.29  0.46034322
