# Created by:        SpecsLab Prodigy, Version 4.60.2-r85849 
#
# XY-Serializer Export Settings:
#   Comment Prefix:           #
#   Output meta data:         yes
#   Energy Axis:              Binding Energy
#   Count Rate:               Counts per Second
#   Separate Scan Data:       no
#   Separate Channel Data:    no
#   External Channel Data:    yes
#   Transmission Function:    no
#   ErrorBar:                 no
#   Operation Results:        yes
#   Time Zone Format:         UTC
#
# Group:             Spectrum Group
#
# Region:            C1s
# Acquisition Date:  01/12/22 15:44:02 UTC
# Analysis Method:   XPS
# Analyzer:          Phoibos 100 R6
# Analyzer Lens:     LargeArea:1.5kV
# Analyzer Slit:     1:0.2x20\B:open
# Scan Mode:         FixedAnalyzerTransmission
# Curves/Scan:       1
# Values/Curve:      131
# Dwell Time:        0.8
# Excitation Energy: 1486.61
# Binding Energy:    295
# Pass Energy:       30
# Bias Voltage:      90
# Detector Voltage:  2600
# Eff. Workfunction: 4.309
# Source:            X-Ray Dummy
# Comment:           
#
# Cycle: 0
# Number of Scans: 2
#
# Cycle: 0, Curve: 0
# Acquisition Date: 01/12/22 15:44:02 UTC
#
# ColumnLabels: energy counts/s
#
295  687.5
294.9  677.5
294.8  647.5
294.7  694.375
294.6  684.375
294.5  648.125
294.4  673.125
294.3  650.625
294.2  711.25
294.1  696.875
294  664.375
293.9  670.625
293.8  657.5
293.7  703.125
293.6  656.875
293.5  712.5
293.4  698.125
293.3  665
293.2  719.375
293.1  691.25
293  718.125
292.9  651.875
292.8  667.5
292.7  718.125
292.6  676.875
292.5  663.75
292.4  694.375
292.3  681.25
292.2  662.5
292.1  703.75
292  698.75
291.9  660.625
291.8  676.25
291.7  652.5
291.6  706.25
291.5  673.125
291.4  675.625
291.3  694.375
291.2  682.5
291.1  692.5
291  695
290.9  689.375
290.8  706.875
290.7  685.625
290.6  688.75
290.5  692.5
290.4  704.375
290.3  688.75
290.2  680
290.1  698.125
290  708.125
289.9  704.375
289.8  701.875
289.7  713.75
289.6  703.75
289.5  695.625
289.4  725
289.3  703.75
289.2  732.5
289.1  668.125
289  725.625
288.9  693.125
288.8  719.375
288.7  699.375
288.6  741.875
288.5  708.125
288.4  736.875
288.3  712.5
288.2  759.375
288.1  694.375
288  736.25
287.9  723.75
287.8  714.375
287.7  705.625
287.6  711.875
287.5  743.75
287.4  711.25
287.3  675.625
287.2  703.125
287.1  700
287  663.125
286.9  669.375
286.8  681.875
286.7  682.5
286.6  624.375
286.5  711.875
286.4  701.875
286.3  697.5
286.2  690.625
286.1  691.875
286  680.625
285.9  674.375
285.8  661.25
285.7  656.875
285.6  698.125
285.5  675
285.4  706.875
285.3  699.375
285.2  702.5
285.1  651.875
285  685
284.9  690.625
284.8  726.25
284.7  710.625
284.6  660.625
284.5  677.5
284.4  656.875
284.3  715.625
284.2  706.25
284.1  723.125
284  677.5
283.9  693.125
283.8  651.25
283.7  683.75
283.6  688.125
283.5  695
283.4  699.375
283.3  701.25
283.2  685
283.1  692.5
283  679.375
282.9  715
282.8  691.25
282.7  664.375
282.6  709.375
282.5  669.375
282.4  655.625
282.3  671.875
282.2  718.75
282.1  635
282  705.625

# Region:            N1s
# Acquisition Date:  01/12/22 15:45:49 UTC
# Analysis Method:   XPS
# Analyzer:          Phoibos 100 R6
# Analyzer Lens:     LargeArea:1.5kV
# Analyzer Slit:     1:0.2x20\B:open
# Scan Mode:         FixedAnalyzerTransmission
# Curves/Scan:       1
# Values/Curve:      131
# Dwell Time:        0.8
# Excitation Energy: 1486.61
# Binding Energy:    408
# Pass Energy:       30
# Bias Voltage:      90
# Detector Voltage:  2600
# Eff. Workfunction: 4.309
# Source:            X-Ray Dummy
# Comment:           
#
# Cycle: 0
# Number of Scans: 2
#
# Cycle: 0, Curve: 0
# Acquisition Date: 01/12/22 15:45:49 UTC
#
# ColumnLabels: energy counts/s
#
408  711.25
407.9  718.75
407.8  700.625
407.7  760
407.6  757.5
407.5  706.25
407.4  737.5
407.3  740.625
407.2  697.5
407.1  701.875
407  748.75
406.9  732.5
406.8  721.875
406.7  706.875
406.6  739.375
406.5  738.75
406.4  754.375
406.3  707.5
406.2  728.125
406.1  736.25
406  754.375
405.9  725
405.8  700.625
405.7  750.625
405.6  980.625
405.5  733.75
405.4  698.125
405.3  730.625
405.2  769.375
405.1  735.625
405  723.75
404.9  748.75
404.8  718.125
404.7  725
404.6  740.625
404.5  696.25
404.4  677.5
404.3  778.75
404.2  757.5
404.1  756.25
404  772.5
403.9  716.25
403.8  751.25
403.7  737.5
403.6  780.625
403.5  753.125
403.4  740
403.3  787.5
403.2  740.625
403.1  783.75
403  770.625
402.9  758.125
402.8  817.5
402.7  783.125
402.6  774.375
402.5  755
402.4  811.875
402.3  732.5
402.2  783.75
402.1  820.625
402  738.75
401.9  727.5
401.8  740
401.7  719.375
401.6  749.375
401.5  744.375
401.4  768.125
401.3  752.5
401.2  718.125
401.1  736.875
401  736.25
400.9  746.25
400.8  731.875
400.7  746.875
400.6  761.875
400.5  721.875
400.4  746.875
400.3  776.875
400.2  743.125
400.1  748.125
400  706.25
399.9  726.875
399.8  776.875
399.7  739.375
399.6  726.875
399.5  760
399.4  737.5
399.3  758.125
399.2  691.25
399.1  721.25
399  738.75
398.9  763.125
398.8  745.625
398.7  756.25
398.6  744.375
398.5  748.125
398.4  710
398.3  756.25
398.2  744.375
398.1  736.25
398  728.75
397.9  710
397.8  738.125
397.7  750.625
397.6  660
397.5  751.25
397.4  719.375
397.3  742.5
397.2  743.75
397.1  780.625
397  711.25
396.9  719.375
396.8  697.5
396.7  730
396.6  734.375
396.5  741.875
396.4  718.75
396.3  723.75
396.2  745
396.1  733.75
396  740
395.9  740.625
395.8  732.5
395.7  732.5
395.6  754.375
395.5  768.125
395.4  727.5
395.3  714.375
395.2  749.375
395.1  721.25
395  756.875

# Region:            Si2p
# Acquisition Date:  01/12/22 15:51:32 UTC
# Analysis Method:   XPS
# Analyzer:          Phoibos 100 R6
# Analyzer Lens:     LargeArea:1.5kV
# Analyzer Slit:     1:0.2x20\B:open
# Scan Mode:         FixedAnalyzerTransmission
# Curves/Scan:       1
# Values/Curve:      141
# Dwell Time:        0.8
# Excitation Energy: 1486.61
# Binding Energy:    112
# Pass Energy:       30
# Bias Voltage:      90
# Detector Voltage:  2600
# Eff. Workfunction: 4.309
# Source:            X-Ray Dummy
# Comment:           
#
# Cycle: 0
# Number of Scans: 4
#
# Cycle: 0, Curve: 0
# Acquisition Date: 01/12/22 15:51:32 UTC
#
# ColumnLabels: energy counts/s
#
112  417.5
111.9  417.5
111.8  429.0625
111.7  408.4375
111.6  423.4375
111.5  413.4375
111.4  439.0625
111.3  434.375
111.2  440
111.1  430.9375
111  459.375
110.9  450.3125
110.8  463.4375
110.7  441.5625
110.6  458.75
110.5  475
110.4  497.1875
110.3  498.4375
110.2  532.5
110.1  552.8125
110  560
109.9  551.875
109.8  626.875
109.7  665.9375
109.6  742.1875
109.5  751.5625
109.4  836.25
109.3  892.8125
109.2  971.875
109.1  1042.8125
109  1159.375
108.9  1272.8125
108.8  1351.875
108.7  1445.3125
108.6  1577.5
108.5  1605
108.4  1710.3125
108.3  1780.9375
108.2  1853.4375
108.1  1898.4375
108  1926.25
107.9  1997.5
107.8  2012.8125
107.7  2008.125
107.6  1955.3125
107.5  1923.125
107.4  1815.625
107.3  1724.375
107.2  1715
107.1  1598.4375
107  1482.1875
106.9  1359.6875
106.8  1302.8125
106.7  1226.25
106.6  1101.875
106.5  1030.3125
106.4  939.6875
106.3  883.125
106.2  827.1875
106.1  765.625
106  682.1875
105.9  655.3125
105.8  630.625
105.7  571.5625
105.6  547.5
105.5  523.4375
105.4  492.1875
105.3  499.375
105.2  452.8125
105.1  456.875
105  443.75
104.9  450
104.8  418.75
104.7  430.3125
104.6  424.6875
104.5  415.9375
104.4  404.0625
104.3  385.9375
104.2  394.375
104.1  416.5625
104  394.6875
103.9  421.5625
103.8  394.375
103.7  384.375
103.6  380.625
103.5  394.375
103.4  392.1875
103.3  394.375
103.2  380.3125
103.1  395
103  380.625
102.9  363.4375
102.8  386.25
102.7  376.5625
102.6  378.4375
102.5  364.6875
102.4  364.6875
102.3  388.4375
102.2  380.9375
102.1  383.4375
102  386.25
101.9  400.625
101.8  372.5
101.7  365.3125
101.6  381.5625
101.5  389.375
101.4  385.3125
101.3  384.6875
101.2  370.3125
101.1  387.5
101  383.75
100.9  401.5625
100.8  360.625
100.7  391.875
100.6  362.8125
100.5  347.5
100.4  375.3125
100.3  360.625
100.2  395
100.1  368.75
100  378.75
99.9  384.375
99.8  406.25
99.7  398.125
99.6  408.4375
99.5  402.1875
99.4  384.6875
99.3  392.5
99.2  427.1875
99.1  428.75
99  449.0625
98.9  413.4375
98.8  437.1875
98.7  456.875
98.6  475.3125
98.5  472.8125
98.4  463.4375
98.3  477.1875
98.2  465.3125
98.1  489.0625
98  486.25

# Region:            O1s
# Acquisition Date:  01/12/22 15:37:59 UTC
# Analysis Method:   XPS
# Analyzer:          Phoibos 100 R6
# Analyzer Lens:     LargeArea:1.5kV
# Analyzer Slit:     1:0.2x20\B:open
# Scan Mode:         FixedAnalyzerTransmission
# Curves/Scan:       1
# Values/Curve:      171
# Dwell Time:        0.8
# Excitation Energy: 1486.61
# Binding Energy:    545
# Pass Energy:       30
# Bias Voltage:      90
# Detector Voltage:  2600
# Eff. Workfunction: 4.309
# Source:            X-Ray Dummy
# Comment:           
#
# Cycle: 0
# Number of Scans: 1
#
# Cycle: 0, Curve: 0
# Acquisition Date: 01/12/22 15:37:59 UTC
#
# ColumnLabels: energy counts/s
#
545  1270
544.9  1126.25
544.8  1222.5
544.7  1293.75
544.6  1198.75
544.5  1242.5
544.4  1240
544.3  1202.5
544.2  1177.5
544.1  1193.75
544  1185
543.9  1192.5
543.8  1186.25
543.7  1191.25
543.6  1213.75
543.5  1157.5
543.4  1205
543.3  1160
543.2  1122.5
543.1  1183.75
543  1248.75
542.9  1228.75
542.8  1150
542.7  1135
542.6  1142.5
542.5  1145
542.4  1225
542.3  1200
542.2  1195
542.1  1245
542  1185
541.9  1208.75
541.8  1176.25
541.7  1257.5
541.6  1237.5
541.5  1293.75
541.4  1283.75
541.3  1311.25
541.2  1305
541.1  1360
541  1275
540.9  1392.5
540.8  1380
540.7  1345
540.6  1416.25
540.5  1460
540.4  1531.25
540.3  1521.25
540.2  1470
540.1  1611.25
540  1697.5
539.9  1753.75
539.8  1712.5
539.7  1782.5
539.6  1935
539.5  2081.25
539.4  2155
539.3  2278.75
539.2  2526.25
539.1  2671.25
539  2980
538.9  3205
538.8  3567.5
538.7  3958.75
538.6  4272.5
538.5  4845
538.4  5396.25
538.3  5896.25
538.2  6610
538.1  7088.75
538  7905
537.9  8445
537.8  9003.75
537.7  9761.25
537.6  10370
537.5  10865
537.4  11346.25
537.3  11773.75
537.2  12012.5
537.1  11861.25
537  12053.75
536.9  11818.75
536.8  11677.5
536.7  10918.75
536.6  10556.25
536.5  9860
536.4  9356.25
536.3  8691.25
536.2  7952.5
536.1  7227.5
536  6418.75
535.9  5735
535.8  5068.75
535.7  4602.5
535.6  3995
535.5  3535
535.4  3245
535.3  2861.25
535.2  2553.75
535.1  2405
535  2190
534.9  1896.25
534.8  1902.5
534.7  1810
534.6  1638.75
534.5  1667.5
534.4  1495
534.3  1410
534.2  1405
534.1  1435
534  1391.25
533.9  1323.75
533.8  1212.5
533.7  1288.75
533.6  1183.75
533.5  1203.75
533.4  1240
533.3  1151.25
533.2  1162.5
533.1  1107.5
533  1170
532.9  1238.75
532.8  1072.5
532.7  1138.75
532.6  1163.75
532.5  1062.5
532.4  1053.75
532.3  1092.5
532.2  1096.25
532.1  1071.25
532  1201.25
531.9  1035
531.8  1068.75
531.7  1098.75
531.6  1078.75
531.5  1085
531.4  1081.25
531.3  1057.5
531.2  1063.75
531.1  1060
531  1025
530.9  1006.25
530.8  1011.25
530.7  1096.25
530.6  1066.25
530.5  1080
530.4  1093.75
530.3  1042.5
530.2  1040
530.1  1005
530  1038.75
529.9  1037.5
529.8  1046.25
529.7  1056.25
529.6  1065
529.5  1077.5
529.4  1157.5
529.3  986.25
529.2  1113.75
529.1  1130
529  1060
528.9  1156.25
528.8  1088.75
528.7  1273.75
528.6  1305
528.5  1305
528.4  1348.75
528.3  1342.5
528.2  1386.25
528.1  1477.5
528  1468.75

# Region:            overview
# Acquisition Date:  01/12/22 15:42:15 UTC
# Analysis Method:   XPS
# Analyzer:          Phoibos 100 R6
# Analyzer Lens:     LargeArea:1.5kV
# Analyzer Slit:     1:0.2x20\B:open
# Scan Mode:         FixedAnalyzerTransmission
# Curves/Scan:       1
# Values/Curve:      1205
# Dwell Time:        0.2
# Excitation Energy: 1486.61
# Binding Energy:    1200
# Pass Energy:       50
# Bias Voltage:      90
# Detector Voltage:  2600
# Eff. Workfunction: 4.309
# Source:            X-Ray Dummy
# Comment:           
#
# Cycle: 0
# Number of Scans: 1
#
# Cycle: 0, Curve: 0
# Acquisition Date: 01/12/22 15:42:15 UTC
#
# ColumnLabels: energy counts/s
#
1200  9055
1199  9210
1198  9080
1197  8900
1196  9095
1195  8725
1194  9095
1193  8925
1192  8670
1191  8790
1190  8980
1189  8800
1188  8835
1187  8875
1186  9140
1185  9110
1184  8795
1183  8545
1182  8660
1181  8745
1180  9210
1179  8765
1178  8520
1177  8770
1176  8670
1175  9125
1174  8610
1173  8855
1172  8670
1171  8910
1170  9005
1169  8750
1168  8580
1167  9135
1166  8970
1165  8905
1164  8870
1163  8350
1162  8755
1161  8580
1160  8540
1159  8610
1158  8555
1157  8505
1156  8980
1155  8540
1154  8835
1153  8465
1152  8920
1151  8880
1150  8835
1149  8885
1148  8675
1147  8905
1146  8625
1145  8300
1144  8505
1143  8630
1142  8735
1141  8740
1140  8820
1139  8400
1138  8475
1137  9225
1136  8815
1135  8795
1134  8700
1133  8605
1132  8375
1131  8740
1130  8865
1129  8685
1128  8725
1127  8585
1126  8545
1125  9080
1124  8610
1123  8600
1122  8655
1121  8935
1120  8635
1119  8845
1118  8495
1117  8950
1116  8510
1115  9005
1114  8445
1113  8535
1112  8760
1111  8775
1110  8765
1109  8640
1108  8955
1107  8705
1106  8580
1105  8845
1104  8865
1103  8435
1102  8420
1101  9140
1100  8670
1099  8900
1098  8865
1097  8635
1096  8245
1095  8690
1094  8735
1093  8450
1092  8520
1091  8435
1090  8340
1089  8400
1088  8495
1087  8575
1086  8320
1085  8620
1084  8480
1083  8525
1082  8715
1081  8750
1080  8360
1079  8555
1078  8310
1077  8455
1076  9020
1075  8705
1074  8835
1073  9015
1072  8580
1071  8465
1070  8700
1069  8680
1068  8545
1067  8510
1066  8775
1065  8805
1064  8850
1063  8850
1062  8925
1061  8730
1060  8315
1059  8725
1058  9025
1057  8705
1056  8650
1055  8765
1054  8815
1053  9120
1052  8805
1051  9075
1050  8525
1049  8950
1048  8280
1047  8905
1046  8965
1045  8615
1044  8425
1043  8845
1042  9075
1041  8935
1040  8700
1039  8765
1038  8760
1037  8685
1036  8645
1035  9295
1034  8935
1033  9040
1032  9130
1031  9210
1030  9230
1029  9380
1028  8915
1027  9280
1026  8965
1025  8995
1024  9175
1023  9380
1022  9170
1021  9245
1020  9105
1019  9415
1018  8845
1017  9345
1016  8985
1015  8965
1014  8985
1013  9200
1012  9620
1011  9250
1010  10125
1009  9795
1008  9785
1007  10185
1006  10115
1005  10185
1004  10065
1003  10100
1002  9255
1001  9545
1000  9140
999  9320
998  9030
997  8215
996  8820
995  8950
994  9110
993  9005
992  9320
991  8740
990  9565
989  9840
988  10155
987  11230
986  11615
985  12295
984  12435
983  11485
982  10620
981  10010
980  9080
979  8795
978  8310
977  7705
976  7400
975  7100
974  7020
973  6745
972  6480
971  6300
970  6220
969  6360
968  6280
967  6110
966  6200
965  6135
964  5730
963  6190
962  6040
961  6070
960  5725
959  6125
958  6080
957  5975
956  6170
955  6040
954  6425
953  5875
952  5995
951  5760
950  6275
949  6065
948  6030
947  6075
946  5905
945  6075
944  6085
943  6285
942  6335
941  5945
940  6155
939  6070
938  6035
937  5875
936  6065
935  6235
934  6115
933  5735
932  6020
931  6170
930  5890
929  5625
928  5820
927  6315
926  5980
925  5970
924  5810
923  6215
922  6020
921  6010
920  5840
919  6035
918  5630
917  6125
916  6130
915  6180
914  6235
913  6030
912  6240
911  6210
910  5965
909  5845
908  5820
907  5750
906  6285
905  6270
904  6070
903  6090
902  5985
901  6185
900  6315
899  5920
898  6005
897  6185
896  5970
895  5940
894  6155
893  6140
892  5820
891  6080
890  5995
889  5850
888  6100
887  6150
886  6135
885  6125
884  6145
883  5895
882  5935
881  5565
880  6040
879  6105
878  5890
877  5790
876  5910
875  5975
874  5770
873  5930
872  5595
871  5900
870  5990
869  5705
868  6165
867  5950
866  6000
865  5685
864  5710
863  5715
862  5990
861  5880
860  5755
859  5790
858  5765
857  5750
856  5950
855  6260
854  6055
853  5795
852  5855
851  6285
850  5995
849  5735
848  5870
847  5920
846  6255
845  6090
844  6015
843  6120
842  5980
841  6000
840  6145
839  5725
838  6275
837  5740
836  6170
835  6120
834  6165
833  6235
832  5820
831  5995
830  5985
829  6095
828  6095
827  5910
826  5560
825  6160
824  5775
823  6050
822  5785
821  6025
820  5665
819  6160
818  5595
817  5945
816  5670
815  6140
814  6115
813  5870
812  6475
811  6120
810  5645
809  5910
808  6000
807  5750
806  5995
805  6025
804  6250
803  6060
802  6265
801  6110
800  6105
799  5930
798  6335
797  6185
796  6320
795  6150
794  6260
793  5900
792  6130
791  6095
790  5725
789  5990
788  5905
787  6170
786  5870
785  6000
784  6295
783  5810
782  6150
781  6445
780  6295
779  5825
778  5970
777  5730
776  6080
775  6190
774  6320
773  5800
772  5820
771  5900
770  6255
769  6140
768  5945
767  5780
766  5925
765  5810
764  6090
763  5745
762  5930
761  6170
760  5990
759  6160
758  5870
757  5830
756  6070
755  5740
754  5970
753  6160
752  5690
751  6185
750  5935
749  5930
748  6145
747  6250
746  6020
745  5655
744  5655
743  6020
742  6090
741  5970
740  6225
739  6285
738  6060
737  6055
736  5900
735  6065
734  6575
733  5805
732  5875
731  5945
730  5880
729  6095
728  5685
727  6085
726  6325
725  6245
724  6035
723  5605
722  6495
721  6290
720  5675
719  5960
718  6025
717  6355
716  6105
715  6075
714  6205
713  6230
712  6110
711  6070
710  5995
709  6045
708  6190
707  6325
706  6090
705  5570
704  6355
703  5905
702  6190
701  6350
700  6210
699  6350
698  5885
697  6445
696  5640
695  6160
694  6195
693  6140
692  6020
691  6035
690  6285
689  6165
688  6155
687  6170
686  6090
685  5920
684  6045
683  5930
682  6250
681  6155
680  6105
679  6560
678  6105
677  6085
676  6185
675  6250
674  6040
673  6265
672  5930
671  6140
670  6085
669  6425
668  6000
667  6130
666  6180
665  6315
664  6165
663  6290
662  6170
661  6130
660  6380
659  5930
658  6345
657  6215
656  6360
655  6395
654  5820
653  6335
652  6200
651  6575
650  6625
649  6250
648  6180
647  6215
646  6285
645  6000
644  5930
643  6240
642  5890
641  6510
640  6405
639  6260
638  6110
637  6220
636  6665
635  6295
634  6065
633  6400
632  6065
631  6280
630  6490
629  6240
628  6230
627  6350
626  6025
625  6345
624  6315
623  6300
622  6305
621  6255
620  6710
619  6395
618  6245
617  6370
616  5940
615  6305
614  6705
613  6735
612  6585
611  6510
610  6610
609  6250
608  6445
607  6575
606  6185
605  6665
604  6370
603  6340
602  6365
601  6685
600  6790
599  6325
598  6685
597  6375
596  6330
595  6505
594  6385
593  6540
592  6645
591  6375
590  6520
589  6545
588  6900
587  6550
586  6555
585  6460
584  6415
583  6395
582  6485
581  6735
580  6630
579  6220
578  6580
577  6415
576  6675
575  6690
574  6290
573  6190
572  6300
571  6190
570  6325
569  6710
568  6635
567  7090
566  6715
565  7130
564  7200
563  7495
562  7170
561  7565
560  7565
559  7415
558  7225
557  6875
556  6465
555  6370
554  5935
553  5990
552  5725
551  5365
550  5190
549  5240
548  4525
547  4750
546  4180
545  3810
544  4095
543  3935
542  4020
541  4590
540  6585
539  11925
538  22745
537  29090
536  18990
535  7795
534  4430
533  3765
532  3440
531  3480
530  3575
529  3910
528  4835
527  5120
526  4620
525  4185
524  3595
523  3215
522  3095
521  2755
520  2960
519  2910
518  2840
517  2945
516  2900
515  3060
514  3015
513  2870
512  2695
511  2800
510  2940
509  2850
508  2730
507  2710
506  2860
505  2785
504  2910
503  2965
502  2620
501  2660
500  2730
499  2720
498  2940
497  2660
496  2845
495  2905
494  2775
493  2700
492  2690
491  2875
490  2805
489  2945
488  2735
487  2850
486  2690
485  2375
484  2650
483  2730
482  2640
481  2710
480  2545
479  2660
478  2850
477  2835
476  2610
475  2665
474  2810
473  2420
472  2505
471  2915
470  2750
469  2965
468  2925
467  2905
466  2750
465  2605
464  2775
463  2690
462  2520
461  2525
460  2700
459  2690
458  2600
457  2670
456  2710
455  2445
454  2275
453  2560
452  2250
451  2280
450  2455
449  2195
448  2520
447  2450
446  2340
445  2520
444  2430
443  2430
442  2670
441  2495
440  2825
439  2390
438  2505
437  2395
436  2450
435  2515
434  2405
433  2600
432  2645
431  2580
430  2530
429  2425
428  2550
427  2375
426  2470
425  2450
424  2500
423  2600
422  2320
421  2605
420  2515
419  2275
418  2270
417  2485
416  2500
415  2330
414  2545
413  2525
412  2400
411  2345
410  2255
409  2260
408  2405
407  2285
406  2515
405  2370
404  2545
403  2410
402  2375
401  2450
400  2420
399  2520
398  2510
397  2500
396  2230
395  2490
394  2415
393  2350
392  2220
391  2285
390  2370
389  2220
388  2340
387  2330
386  2515
385  2345
384  2445
383  2265
382  2230
381  2285
380  2435
379  2055
378  2330
377  2085
376  2405
375  2280
374  2290
373  2235
372  2160
371  2510
370  2405
369  2160
368  2135
367  2360
366  2310
365  2265
364  2240
363  2280
362  2130
361  2185
360  2180
359  2260
358  2305
357  2290
356  2325
355  2400
354  2225
353  2235
352  2295
351  2380
350  2305
349  2425
348  2465
347  2435
346  2215
345  2320
344  2275
343  2130
342  2180
341  2205
340  2220
339  2255
338  2250
337  2250
336  2140
335  2305
334  2245
333  2460
332  2090
331  2175
330  2325
329  2320
328  2085
327  2120
326  2125
325  2320
324  2210
323  2175
322  2165
321  2225
320  2305
319  2250
318  2285
317  2095
316  2165
315  2395
314  2080
313  2115
312  2195
311  2000
310  2115
309  2135
308  2235
307  2140
306  2095
305  2345
304  2145
303  2000
302  2275
301  2110
300  2155
299  2285
298  2110
297  2140
296  2250
295  2005
294  2140
293  2090
292  2160
291  2345
290  2340
289  2265
288  2375
287  2265
286  2065
285  2320
284  2030
283  2120
282  2190
281  2170
280  2150
279  2080
278  2035
277  2100
276  2160
275  2230
274  2180
273  2180
272  2065
271  2215
270  2220
269  2145
268  2045
267  2140
266  2200
265  2020
264  2040
263  2090
262  2015
261  2130
260  2105
259  2110
258  1980
257  2040
256  2140
255  2090
254  2220
253  2220
252  2265
251  2220
250  2055
249  2070
248  1995
247  2335
246  1960
245  1960
244  2120
243  2215
242  2305
241  2150
240  2400
239  2140
238  2340
237  2045
236  1975
235  2245
234  2170
233  1970
232  2140
231  2055
230  2335
229  2210
228  2325
227  2285
226  2155
225  2160
224  1920
223  1990
222  1980
221  1850
220  1770
219  1935
218  2000
217  1930
216  1780
215  2030
214  1890
213  1970
212  1915
211  2030
210  2000
209  1925
208  2070
207  1900
206  2015
205  2230
204  2075
203  1920
202  1985
201  2035
200  2010
199  1970
198  1860
197  1935
196  2050
195  2060
194  1875
193  2115
192  2050
191  2035
190  2250
189  1835
188  1995
187  2090
186  2285
185  2060
184  2155
183  2295
182  2370
181  2285
180  1910
179  2300
178  1970
177  2090
176  2065
175  2075
174  2025
173  2060
172  2040
171  1950
170  1890
169  1785
168  1665
167  1755
166  1730
165  1740
164  1670
163  1935
162  2205
161  3285
160  4250
159  5110
158  4750
157  3350
156  2370
155  1775
154  1755
153  1860
152  1815
151  1810
150  1820
149  1960
148  1740
147  1810
146  1685
145  1550
144  1500
143  1425
142  1465
141  1490
140  1575
139  1510
138  1635
137  1550
136  1565
135  1480
134  1490
133  1570
132  1785
131  1740
130  1670
129  1675
128  1620
127  1490
126  1650
125  1625
124  1540
123  1555
122  1405
121  1385
120  1410
119  1335
118  1435
117  1410
116  1285
115  1285
114  1265
113  1240
112  1295
111  1360
110  1915
109  3390
108  5035
107  4170
106  2280
105  1395
104  1175
103  1175
102  1080
101  1140
100  1325
99  1260
98  1425
97  1270
96  1235
95  1115
94  1170
93  1120
92  1085
91  955
90  1140
89  1205
88  1165
87  1080
86  1145
85  1140
84  975
83  990
82  1100
81  1115
80  1160
79  1145
78  950
77  1045
76  1030
75  910
74  955
73  1005
72  905
71  1020
70  1010
69  1035
68  1090
67  945
66  925
65  935
64  1100
63  1040
62  1085
61  1035
60  1055
59  980
58  1190
57  1160
56  1090
55  1065
54  1040
53  1030
52  1030
51  985
50  1040
49  945
48  1185
47  965
46  1000
45  945
44  945
43  1100
42  1000
41  925
40  1060
39  1000
38  970
37  960
36  1070
35  1055
34  1060
33  1125
32  1265
31  1270
30  1660
29  1470
28  1215
27  1165
26  985
25  1045
24  990
23  1060
22  845
21  835
20  1060
19  950
18  1035
17  920
16  895
15  860
14  885
13  960
12  880
11  880
10  915
9  810
8  770
7  720
6  840
5  835
4  790
3  770
2  850
1  850
-2.2737368e-013  790
-1  735
-2  740
-3  750
-4  815

