# Created by:        SpecsLab Prodigy, Version 4.60.2-r85849 
#
# XY-Serializer Export Settings:
#   Comment Prefix:           #
#   Output meta data:         yes
#   Energy Axis:              Binding Energy
#   Count Rate:               Counts per Second
#   Separate Scan Data:       no
#   Separate Channel Data:    no
#   External Channel Data:    yes
#   Transmission Function:    no
#   ErrorBar:                 no
#   Operation Results:        yes
#   Time Zone Format:         UTC
#
# Group:             Spectrum Group
#
# Region:            O1s
# Acquisition Date:  12/14/21 03:11:43 UTC
# Analysis Method:   XPS
# Analyzer:          Phoibos 100 R6
# Analyzer Lens:     LargeArea:1.5kV
# Analyzer Slit:     1:0.2x20\B:open
# Scan Mode:         FixedAnalyzerTransmission
# Curves/Scan:       1
# Values/Curve:      171
# Dwell Time:        0.8
# Excitation Energy: 1486.61
# Binding Energy:    545
# Pass Energy:       30
# Bias Voltage:      90
# Detector Voltage:  2600
# Eff. Workfunction: 4.309
# Source:            X-Ray Dummy
# Comment:           
#
# Cycle: 0
# Number of Scans: 80
#
# Cycle: 0, Curve: 0
# Acquisition Date: 12/14/21 03:11:43 UTC
#
# ColumnLabels: energy counts/s
#
545  1584.2969
544.9  1565.7188
544.8  1569.1719
544.7  1563.5938
544.6  1553.0625
544.5  1558.0625
544.4  1555.1094
544.3  1553.3594
544.2  1538.625
544.1  1530.9531
544  1523.5313
543.9  1529.5
543.8  1523.5938
543.7  1519.1406
543.6  1514
543.5  1512.0781
543.4  1507.9531
543.3  1506.3906
543.2  1499.6406
543.1  1495.25
543  1489.0781
542.9  1497.6406
542.8  1493.9063
542.7  1481.5469
542.6  1485.7656
542.5  1493.6719
542.4  1479.3594
542.3  1480.0156
542.2  1482.8281
542.1  1479.75
542  1482.2656
541.9  1486.0469
541.8  1481.1406
541.7  1481.2344
541.6  1482.0781
541.5  1487.0469
541.4  1487.125
541.3  1503.4844
541.2  1499.8438
541.1  1494.75
541  1507.125
540.9  1506.9531
540.8  1511.125
540.7  1522.1719
540.6  1538.75
540.5  1527.25
540.4  1535.4063
540.3  1531.0781
540.2  1549.4219
540.1  1552.75
540  1579.8438
539.9  1586.1094
539.8  1597.2031
539.7  1614.7969
539.6  1636.8125
539.5  1658.2188
539.4  1679.4375
539.3  1704.2813
539.2  1727.8125
539.1  1767.7969
539  1809.3594
538.9  1855.8594
538.8  1908.5313
538.7  1968.2188
538.6  2037
538.5  2100.5313
538.4  2179.4531
538.3  2278.2188
538.2  2388.1563
538.1  2497.8438
538  2624.1406
537.9  2765.3906
537.8  2908.7344
537.7  3061.9531
537.6  3219.4531
537.5  3381.9688
537.4  3545.75
537.3  3741
537.2  3933.2813
537.1  4141.9531
537  4299.4219
536.9  4489.4375
536.8  4657.7969
536.7  4827.0781
536.6  4941.9219
536.5  5088.9844
536.4  5197.0781
536.3  5298.9219
536.2  5376.5938
536.1  5454.6875
536  5502.9688
535.9  5521.8594
535.8  5518.1094
535.7  5489.1719
535.6  5445.1719
535.5  5349.2813
535.4  5262.2031
535.3  5165.4063
535.2  5023.7969
535.1  4902.1406
535  4737.0156
534.9  4579.4063
534.8  4409.8125
534.7  4256.75
534.6  4122.1719
534.5  3942.0625
534.4  3800.7656
534.3  3648.0313
534.2  3511.9063
534.1  3379.8281
534  3239.9063
533.9  3114.5469
533.8  2996.3594
533.7  2898.9844
533.6  2785.4688
533.5  2702.8594
533.4  2607.8281
533.3  2510.0938
533.2  2432.5781
533.1  2342.9844
533  2286.7969
532.9  2204.4531
532.8  2128.7656
532.7  2075.0313
532.6  2015.0938
532.5  1954.9219
532.4  1905.7656
532.3  1867.75
532.2  1820.0938
532.1  1793.125
532  1767.875
531.9  1722.8438
531.8  1699.8906
531.7  1679.8438
531.6  1642.5
531.5  1631.2656
531.4  1606.8438
531.3  1594.375
531.2  1563.9844
531.1  1552.5625
531  1531.4844
530.9  1511.375
530.8  1493.3906
530.7  1475.3594
530.6  1454.3281
530.5  1444.2813
530.4  1432.9063
530.3  1421.1719
530.2  1408.5313
530.1  1396.9375
530  1397.2031
529.9  1390.7969
529.8  1387.8906
529.7  1373.7188
529.6  1370.8438
529.5  1372.2344
529.4  1370.0938
529.3  1371.5156
529.2  1360.2188
529.1  1367.3438
529  1372.5625
528.9  1363.6406
528.8  1378.5938
528.7  1376.2969
528.6  1372.9375
528.5  1377.3906
528.4  1388.8281
528.3  1397.8125
528.2  1405.1875
528.1  1419.8281
528  1439.5781

# Region:            N1s
# Acquisition Date:  12/14/21 05:55:07 UTC
# Analysis Method:   XPS
# Analyzer:          Phoibos 100 R6
# Analyzer Lens:     LargeArea:1.5kV
# Analyzer Slit:     1:0.2x20\B:open
# Scan Mode:         FixedAnalyzerTransmission
# Curves/Scan:       1
# Values/Curve:      131
# Dwell Time:        0.8
# Excitation Energy: 1486.61
# Binding Energy:    408
# Pass Energy:       30
# Bias Voltage:      90
# Detector Voltage:  2600
# Eff. Workfunction: 4.309
# Source:            X-Ray Dummy
# Comment:           
#
# Cycle: 0
# Number of Scans: 160
#
# Cycle: 0, Curve: 0
# Acquisition Date: 12/14/21 05:55:07 UTC
#
# ColumnLabels: energy counts/s
#
408  1225.2188
407.9  1221.6016
407.8  1222.6875
407.7  1231.2109
407.6  1229.1563
407.5  1226.25
407.4  1223.0313
407.3  1225.8047
407.2  1235.7891
407.1  1227.4766
407  1236.2422
406.9  1230.8047
406.8  1231.3984
406.7  1240.0859
406.6  1238.8516
406.5  1234.7344
406.4  1234.2188
406.3  1237.0547
406.2  1237.5469
406.1  1239.5234
406  1237.3203
405.9  1237.6641
405.8  1244.6328
405.7  1243.7188
405.6  1239.4219
405.5  1246.3984
405.4  1245.8516
405.3  1249.7422
405.2  1252.0547
405.1  1242.6719
405  1255.6016
404.9  1247.9688
404.8  1248.2969
404.7  1252.2969
404.6  1252.4141
404.5  1251.9609
404.4  1251.5
404.3  1250.1016
404.2  1257.1719
404.1  1257.7031
404  1258.2969
403.9  1252.8672
403.8  1255.1797
403.7  1263.0781
403.6  1254.2734
403.5  1253.0391
403.4  1251.4531
403.3  1257.6563
403.2  1245.7891
403.1  1251.6016
403  1249.8828
402.9  1242.3125
402.8  1245.5234
402.7  1245.0391
402.6  1244.2891
402.5  1240.5781
402.4  1239.4375
402.3  1228.3125
402.2  1231.6797
402.1  1235.3828
402  1227.3672
401.9  1226.5078
401.8  1225.7422
401.7  1216.0781
401.6  1219.3125
401.5  1217.3281
401.4  1210.5156
401.3  1211.9609
401.2  1215.9922
401.1  1201.1953
401  1200.1953
400.9  1197.3047
400.8  1194.0391
400.7  1198.9297
400.6  1189.6094
400.5  1193.3125
400.4  1186.0078
400.3  1185.1953
400.2  1180.4375
400.1  1179.8359
400  1176.7344
399.9  1177.7344
399.8  1177.8906
399.7  1169.7578
399.6  1171.1016
399.5  1172.25
399.4  1171.9453
399.3  1170.4922
399.2  1168.8516
399.1  1159.8125
399  1165.6875
398.9  1158.8438
398.8  1156.7031
398.7  1154.0781
398.6  1151.9453
398.5  1155.7813
398.4  1153.8516
398.3  1154.9688
398.2  1153.6563
398.1  1157.8672
398  1150.9063
397.9  1144.6953
397.8  1151.7266
397.7  1152.2031
397.6  1152.0625
397.5  1146.1484
397.4  1149.0547
397.3  1148.3828
397.2  1141.1016
397.1  1146.1016
397  1144.4297
396.9  1143.2891
396.8  1150.1484
396.7  1142.8672
396.6  1142.5078
396.5  1144.9766
396.4  1140.2969
396.3  1142.2813
396.2  1142.4688
396.1  1135.9609
396  1143.0391
395.9  1143.4453
395.8  1137.4531
395.7  1139.2734
395.6  1137.0078
395.5  1144.1172
395.4  1132.875
395.3  1137.5781
395.2  1145.3672
395.1  1137.1953
395  1136.6641

# Region:            C1s
# Acquisition Date:  12/14/21 03:50:50 UTC
# Analysis Method:   XPS
# Analyzer:          Phoibos 100 R6
# Analyzer Lens:     LargeArea:1.5kV
# Analyzer Slit:     1:0.2x20\B:open
# Scan Mode:         FixedAnalyzerTransmission
# Curves/Scan:       1
# Values/Curve:      131
# Dwell Time:        0.8
# Excitation Energy: 1486.61
# Binding Energy:    295
# Pass Energy:       30
# Bias Voltage:      90
# Detector Voltage:  2600
# Eff. Workfunction: 4.309
# Source:            X-Ray Dummy
# Comment:           
#
# Cycle: 0
# Number of Scans: 90
#
# Cycle: 0, Curve: 0
# Acquisition Date: 12/14/21 03:50:50 UTC
#
# ColumnLabels: energy counts/s
#
295  1070.5972
294.9  1069.0833
294.8  1069.7639
294.7  1068.6806
294.6  1070.2361
294.5  1075.2083
294.4  1079.8611
294.3  1078.0278
294.2  1078.7361
294.1  1089.9028
294  1081.6111
293.9  1093.625
293.8  1086.5972
293.7  1102.25
293.6  1101.2917
293.5  1107.4167
293.4  1115.6528
293.3  1122.3611
293.2  1127.5139
293.1  1123.3056
293  1135.75
292.9  1131.8194
292.8  1141.875
292.7  1150.6528
292.6  1161.0417
292.5  1156.0694
292.4  1163.3194
292.3  1168.9861
292.2  1175.875
292.1  1176.9722
292  1184.4167
291.9  1184.75
291.8  1191.2639
291.7  1198.7917
291.6  1209.4722
291.5  1210.0417
291.4  1219.0417
291.3  1224.0417
291.2  1233.0139
291.1  1242.0417
291  1254.9306
290.9  1266.6944
290.8  1278.3056
290.7  1280.0833
290.6  1300.5694
290.5  1314.0139
290.4  1325.9444
290.3  1348.625
290.2  1375.125
290.1  1394.9167
290  1408.4167
289.9  1427.0694
289.8  1450.2361
289.7  1477.0417
289.6  1497.875
289.5  1514.4444
289.4  1548.9861
289.3  1555.1944
289.2  1583.7222
289.1  1588.6111
289  1607.7222
288.9  1620.7222
288.8  1624.5694
288.7  1643.2361
288.6  1631.5
288.5  1640.5972
288.4  1639.7917
288.3  1644.4583
288.2  1625.8472
288.1  1616.1667
288  1605.4167
287.9  1584.2222
287.8  1561.1667
287.7  1546.8472
287.6  1513
287.5  1478.5417
287.4  1451.3889
287.3  1399.5556
287.2  1378.625
287.1  1347.2361
287  1313.4167
286.9  1283.2222
286.8  1244.7917
286.7  1228.0972
286.6  1199.5139
286.5  1173.8472
286.4  1172.0972
286.3  1137.875
286.2  1128.6667
286.1  1120.6528
286  1112.2778
285.9  1094.6806
285.8  1102.1667
285.7  1082.3194
285.6  1072.7778
285.5  1074.8889
285.4  1066.875
285.3  1065.5556
285.2  1072.4306
285.1  1055
285  1060.3194
284.9  1060.5278
284.8  1055.6528
284.7  1056.7778
284.6  1052.8056
284.5  1047.8333
284.4  1054.2778
284.3  1040.2778
284.2  1049.8194
284.1  1047.4583
284  1049.0278
283.9  1048.5972
283.8  1054.625
283.7  1045.1806
283.6  1051.2917
283.5  1049.25
283.4  1041.0833
283.3  1051.4028
283.2  1042.9861
283.1  1041.8056
283  1050.5556
282.9  1042.1667
282.8  1048.6667
282.7  1053.5278
282.6  1046.4583
282.5  1055.3056
282.4  1039.5139
282.3  1041.125
282.2  1050.1806
282.1  1042.0833
282  1048.6806

# Region:            overview
# Acquisition Date:  12/13/21 18:41:40 UTC
# Analysis Method:   XPS
# Analyzer:          Phoibos 100 R6
# Analyzer Lens:     LargeArea:1.5kV
# Analyzer Slit:     1:0.2x20\B:open
# Scan Mode:         FixedAnalyzerTransmission
# Curves/Scan:       1
# Values/Curve:      1205
# Dwell Time:        0.2
# Excitation Energy: 1486.61
# Binding Energy:    1200
# Pass Energy:       50
# Bias Voltage:      90
# Detector Voltage:  2600
# Eff. Workfunction: 4.309
# Source:            X-Ray Dummy
# Comment:           
#
# Cycle: 0
# Number of Scans: 1
#
# Cycle: 0, Curve: 0
# Acquisition Date: 12/13/21 18:41:40 UTC
#
# ColumnLabels: energy counts/s
#
1200  8745
1199  8765
1198  9135
1197  8655
1196  8895
1195  8520
1194  8660
1193  8320
1192  8525
1191  8360
1190  8105
1189  8370
1188  8650
1187  8555
1186  8125
1185  8465
1184  8275
1183  8675
1182  8515
1181  8260
1180  8770
1179  8070
1178  8075
1177  8275
1176  8275
1175  8285
1174  8635
1173  8435
1172  8240
1171  8375
1170  8505
1169  8235
1168  8355
1167  8525
1166  8490
1165  8315
1164  8440
1163  8380
1162  8175
1161  8375
1160  8230
1159  8475
1158  8510
1157  8235
1156  8225
1155  8390
1154  8305
1153  8445
1152  8445
1151  8145
1150  8380
1149  8200
1148  7960
1147  8100
1146  8355
1145  8340
1144  8080
1143  8485
1142  8820
1141  8470
1140  8155
1139  8690
1138  8295
1137  8320
1136  8635
1135  8260
1134  8495
1133  8445
1132  8225
1131  8180
1130  8550
1129  8470
1128  8565
1127  8430
1126  8295
1125  8460
1124  8105
1123  8235
1122  8275
1121  8095
1120  8210
1119  8545
1118  8555
1117  8175
1116  8365
1115  8535
1114  8385
1113  8305
1112  8470
1111  8470
1110  8680
1109  8075
1108  8375
1107  8900
1106  8240
1105  8705
1104  8800
1103  8055
1102  8410
1101  8290
1100  8345
1099  8710
1098  8480
1097  8345
1096  8240
1095  8350
1094  8215
1093  8420
1092  8320
1091  8420
1090  8165
1089  8070
1088  8165
1087  8420
1086  8265
1085  8735
1084  8535
1083  8265
1082  8595
1081  8270
1080  8685
1079  8455
1078  8780
1077  8380
1076  8595
1075  8430
1074  8530
1073  8400
1072  8585
1071  8070
1070  8275
1069  8495
1068  8540
1067  8445
1066  8640
1065  8555
1064  8570
1063  8770
1062  8680
1061  8615
1060  8360
1059  8630
1058  8535
1057  8045
1056  8725
1055  8470
1054  8610
1053  8625
1052  8560
1051  8460
1050  8710
1049  8695
1048  8720
1047  8580
1046  8510
1045  8875
1044  8925
1043  8360
1042  8310
1041  8795
1040  8320
1039  8675
1038  8575
1037  8410
1036  8540
1035  8370
1034  8500
1033  8160
1032  8430
1031  8725
1030  8660
1029  8695
1028  8600
1027  8620
1026  8835
1025  8760
1024  8685
1023  8855
1022  8700
1021  8615
1020  8230
1019  8675
1018  8530
1017  8385
1016  8880
1015  8405
1014  8685
1013  8860
1012  8505
1011  8495
1010  9320
1009  8205
1008  8980
1007  8960
1006  8870
1005  9060
1004  9045
1003  8785
1002  8970
1001  8875
1000  8460
999  8165
998  8675
997  8375
996  8140
995  8165
994  7960
993  8140
992  8220
991  8050
990  8365
989  7875
988  8080
987  8205
986  8895
985  9095
984  8875
983  9145
982  9790
981  9035
980  9365
979  8880
978  8815
977  8720
976  8260
975  8035
974  7580
973  7755
972  7495
971  6760
970  6985
969  6935
968  6885
967  6855
966  6790
965  6635
964  6800
963  6615
962  6520
961  6455
960  6590
959  6645
958  6510
957  6485
956  6345
955  6590
954  6675
953  6685
952  6300
951  6370
950  6755
949  6455
948  6665
947  6540
946  6615
945  6790
944  6640
943  6700
942  6555
941  6225
940  6510
939  6555
938  6320
937  6755
936  6580
935  6900
934  6685
933  6620
932  6770
931  6465
930  6780
929  6415
928  6785
927  6425
926  6815
925  6390
924  6740
923  6845
922  6890
921  6870
920  6865
919  6585
918  6565
917  6420
916  6890
915  6670
914  6750
913  6555
912  6990
911  6635
910  6765
909  6875
908  7005
907  6980
906  6905
905  7305
904  6885
903  6880
902  6905
901  7085
900  6715
899  6900
898  6655
897  6615
896  6515
895  6915
894  6425
893  6985
892  6855
891  6880
890  6615
889  6955
888  6695
887  6450
886  6995
885  6415
884  6480
883  6890
882  6220
881  6755
880  6590
879  6805
878  6650
877  6445
876  6895
875  6385
874  6355
873  6330
872  6640
871  6580
870  6685
869  6845
868  6875
867  7150
866  6645
865  6415
864  6540
863  6705
862  6540
861  6565
860  6395
859  6445
858  6835
857  6960
856  6635
855  6925
854  6385
853  6875
852  7040
851  6770
850  6425
849  6470
848  6595
847  7005
846  6465
845  7010
844  6485
843  6575
842  6715
841  6770
840  6830
839  6605
838  6600
837  6860
836  6890
835  6980
834  6935
833  6845
832  6685
831  6985
830  7245
829  6915
828  6780
827  6535
826  6445
825  6780
824  6535
823  6960
822  6580
821  6960
820  6765
819  6995
818  6590
817  6675
816  6995
815  6740
814  6535
813  6805
812  7120
811  6855
810  6890
809  6930
808  6485
807  6515
806  6535
805  6490
804  6780
803  6700
802  6965
801  6710
800  6735
799  7235
798  7435
797  7500
796  7690
795  7090
794  6870
793  6495
792  6655
791  6545
790  6680
789  6735
788  6810
787  6535
786  6655
785  6860
784  6780
783  7520
782  7680
781  8185
780  7255
779  6785
778  6730
777  6690
776  6670
775  7025
774  6635
773  6690
772  6990
771  6790
770  6740
769  7025
768  7015
767  6815
766  7170
765  6760
764  6510
763  6780
762  6805
761  6580
760  6820
759  6730
758  6675
757  6585
756  6890
755  6315
754  6630
753  6405
752  6715
751  6665
750  6595
749  6670
748  6785
747  6640
746  6680
745  6605
744  6775
743  6505
742  6550
741  6650
740  6775
739  6725
738  6495
737  6475
736  6590
735  6820
734  6980
733  6820
732  6620
731  6870
730  6735
729  6570
728  6910
727  6965
726  6775
725  6605
724  6955
723  6680
722  6870
721  6955
720  7065
719  6740
718  6785
717  6525
716  7260
715  7000
714  6615
713  6970
712  7035
711  6690
710  6615
709  6745
708  6845
707  6880
706  7040
705  6805
704  6725
703  6705
702  6830
701  6795
700  6925
699  6490
698  6995
697  6860
696  6520
695  6695
694  6750
693  6560
692  6500
691  6920
690  6760
689  7000
688  7230
687  7220
686  7205
685  7260
684  6980
683  6895
682  6785
681  6620
680  6625
679  6765
678  6720
677  6935
676  6945
675  6775
674  6685
673  7035
672  6755
671  7005
670  7210
669  6970
668  6775
667  7065
666  6755
665  6665
664  6640
663  7135
662  6705
661  6840
660  6975
659  6640
658  6615
657  6835
656  6730
655  6730
654  6895
653  6490
652  6995
651  6945
650  6515
649  6420
648  6950
647  6975
646  6765
645  7065
644  7190
643  6900
642  6640
641  7015
640  6910
639  6790
638  6595
637  6840
636  6930
635  6925
634  6980
633  6715
632  6660
631  7065
630  6640
629  7005
628  6645
627  6695
626  6795
625  7095
624  7025
623  7040
622  6675
621  6530
620  6755
619  6890
618  6985
617  6660
616  6645
615  6710
614  7195
613  6945
612  6895
611  6795
610  6850
609  6755
608  7275
607  7025
606  7100
605  6690
604  6995
603  6835
602  7450
601  6810
600  7170
599  6830
598  7135
597  6785
596  6965
595  6465
594  7155
593  6755
592  6860
591  7115
590  6865
589  6885
588  7035
587  7245
586  7090
585  7050
584  6835
583  7175
582  6825
581  7015
580  7125
579  7160
578  6925
577  7125
576  7160
575  7010
574  6865
573  6955
572  6740
571  6900
570  6605
569  6760
568  7120
567  6945
566  6825
565  6890
564  6935
563  6915
562  7540
561  6990
560  7405
559  7230
558  7435
557  7190
556  7030
555  6590
554  6845
553  6905
552  6745
551  6445
550  5995
549  6180
548  6050
547  5800
546  5290
545  5150
544  4900
543  5200
542  5130
541  5165
540  5200
539  5555
538  7165
537  10645
536  14895
535  14890
534  11470
533  8155
532  6580
531  5525
530  5050
529  4585
528  4720
527  5300
526  5175
525  5230
524  4920
523  4695
522  4555
521  4430
520  4325
519  4215
518  4325
517  4215
516  4255
515  4090
514  4325
513  4205
512  4185
511  4280
510  4390
509  4175
508  4275
507  4125
506  4340
505  4010
504  4115
503  4285
502  4315
501  4500
500  4710
499  4295
498  4200
497  4120
496  4255
495  4415
494  4185
493  4015
492  4325
491  4215
490  4155
489  4025
488  4255
487  3910
486  4240
485  4100
484  4070
483  4080
482  4375
481  4205
480  3995
479  3825
478  3900
477  3780
476  3865
475  4020
474  4020
473  4085
472  4020
471  4030
470  4035
469  4075
468  4190
467  4165
466  4350
465  4375
464  4325
463  3945
462  3950
461  3990
460  3790
459  3900
458  4085
457  3810
456  4125
455  4030
454  3730
453  3905
452  3830
451  4005
450  4020
449  3760
448  4015
447  4080
446  4030
445  4025
444  4235
443  4400
442  4390
441  4425
440  4150
439  3735
438  4015
437  3780
436  4005
435  3815
434  4070
433  4005
432  3945
431  4100
430  3865
429  3730
428  3775
427  3740
426  3565
425  3945
424  3795
423  3900
422  3915
421  3795
420  3685
419  3790
418  3855
417  3805
416  3825
415  3815
414  3865
413  3960
412  4050
411  3635
410  3905
409  3930
408  3870
407  4085
406  4095
405  4135
404  4040
403  4150
402  4205
401  3690
400  3980
399  3645
398  3660
397  3975
396  3990
395  3470
394  3830
393  3885
392  3620
391  3610
390  3685
389  3720
388  3815
387  3240
386  3515
385  3540
384  3500
383  3620
382  3675
381  3575
380  3780
379  3705
378  3525
377  3605
376  3335
375  3195
374  3585
373  3615
372  3775
371  3465
370  3780
369  3420
368  3530
367  3360
366  3555
365  3590
364  3245
363  3370
362  3560
361  3585
360  3415
359  3660
358  3290
357  3495
356  3830
355  4160
354  4220
353  4110
352  4345
351  4850
350  4885
349  4285
348  3445
347  3280
346  3495
345  3480
344  3215
343  3350
342  3130
341  3360
340  3445
339  3740
338  3415
337  3720
336  3100
335  3460
334  3315
333  3450
332  3190
331  3215
330  3305
329  3375
328  3075
327  3330
326  3060
325  3385
324  3415
323  3505
322  3160
321  3435
320  3615
319  3490
318  3365
317  3570
316  3415
315  3475
314  3350
313  3440
312  3505
311  3320
310  3665
309  3590
308  3560
307  3340
306  3445
305  3450
304  3610
303  3300
302  3445
301  3460
300  3455
299  3255
298  3390
297  3320
296  3055
295  3440
294  3290
293  3625
292  3400
291  3805
290  4075
289  5015
288  5225
287  4605
286  3810
285  3465
284  3445
283  3190
282  3095
281  3215
280  3390
279  3395
278  3465
277  3350
276  2965
275  3260
274  3110
273  3080
272  3125
271  3285
270  2915
269  3135
268  3320
267  3025
266  3010
265  3190
264  3070
263  3045
262  2830
261  3350
260  3460
259  3145
258  3035
257  3165
256  3315
255  2890
254  3085
253  3025
252  2950
251  3190
250  3295
249  2975
248  3365
247  3195
246  3155
245  3350
244  3075
243  3545
242  3325
241  3760
240  3405
239  3375
238  3285
237  2960
236  3205
235  3295
234  3310
233  3385
232  3240
231  3350
230  3315
229  3125
228  3405
227  3285
226  2825
225  2925
224  2835
223  2400
222  2640
221  2575
220  2390
219  2585
218  2420
217  2395
216  2360
215  2390
214  2480
213  2510
212  2360
211  2255
210  2270
209  2375
208  2270
207  2465
206  2170
205  2430
204  2220
203  2285
202  2560
201  2315
200  2220
199  2230
198  2245
197  2290
196  2295
195  1990
194  2390
193  2065
192  2295
191  2195
190  1985
189  2220
188  2285
187  2185
186  2180
185  2490
184  2380
183  2365
182  2330
181  2335
180  2425
179  2215
178  2345
177  2395
176  2295
175  2260
174  2220
173  2145
172  1850
171  2015
170  2190
169  2060
168  1800
167  2105
166  1915
165  2000
164  1925
163  1995
162  1875
161  2060
160  2395
159  2655
158  3155
157  3280
156  2845
155  2330
154  1845
153  1900
152  1980
151  1900
150  1825
149  1890
148  1815
147  1940
146  1985
145  1640
144  1840
143  1930
142  1815
141  1950
140  1710
139  1785
138  1830
137  1870
136  1800
135  1785
134  1720
133  1795
132  1905
131  1640
130  1720
129  1810
128  1920
127  1590
126  1840
125  1850
124  1960
123  1805
122  1900
121  1630
120  1535
119  1580
118  1710
117  1625
116  1555
115  1675
114  1660
113  1625
112  1430
111  1465
110  1580
109  1550
108  2105
107  2950
106  2780
105  2290
104  1820
103  1585
102  1680
101  1585
100  1615
99  1575
98  1665
97  1620
96  1720
95  1885
94  1890
93  1590
92  1750
91  1625
90  1665
89  1695
88  1690
87  1435
86  1675
85  1670
84  1655
83  1575
82  1455
81  1595
80  1595
79  1520
78  1500
77  1600
76  1430
75  1450
74  1635
73  1440
72  1585
71  1470
70  1470
69  1550
68  1565
67  1445
66  1550
65  1555
64  1410
63  1300
62  1515
61  1485
60  1580
59  1725
58  1615
57  1590
56  1565
55  1565
54  1510
53  1515
52  1395
51  1590
50  1440
49  1570
48  1455
47  1590
46  1665
45  1750
44  1415
43  1545
42  1375
41  1530
40  1565
39  1300
38  1510
37  1515
36  1385
35  1575
34  1585
33  1730
32  1550
31  1665
30  1935
29  2130
28  2300
27  2180
26  1975
25  2075
24  1975
23  1810
22  1445
21  1155
20  1125
19  1170
18  1140
17  1100
16  1140
15  1210
14  920
13  1115
12  855
11  1100
10  980
9  945
8  1050
7  940
6  925
5  890
4  895
3  805
2  965
1  920
-2.2737368e-013  830
-1  1015
-2  955
-3  920
-4  780

# Region:            Si2p
# Acquisition Date:  12/13/21 20:20:55 UTC
# Analysis Method:   XPS
# Analyzer:          Phoibos 100 R6
# Analyzer Lens:     LargeArea:1.5kV
# Analyzer Slit:     1:0.2x20\B:open
# Scan Mode:         FixedAnalyzerTransmission
# Curves/Scan:       1
# Values/Curve:      141
# Dwell Time:        0.8
# Excitation Energy: 1486.61
# Binding Energy:    112
# Pass Energy:       30
# Bias Voltage:      90
# Detector Voltage:  2600
# Eff. Workfunction: 4.309
# Source:            X-Ray Dummy
# Comment:           
#
# Cycle: 0
# Number of Scans: 10
#
# Cycle: 0, Curve: 0
# Acquisition Date: 12/13/21 20:20:55 UTC
#
# ColumnLabels: energy counts/s
#
112  538.125
111.9  523.25
111.8  524.875
111.7  527.375
111.6  543.75
111.5  549
111.4  561.125
111.3  557.875
111.2  551.875
111.1  541.125
111  560.25
110.9  550.875
110.8  533.25
110.7  544.125
110.6  550.5
110.5  548
110.4  554.75
110.3  543
110.2  533.625
110.1  544.75
110  550.625
109.9  545.625
109.8  554.875
109.7  558.875
109.6  551.625
109.5  555.25
109.4  559.25
109.3  552.625
109.2  574.875
109.1  573.875
109  588.5
108.9  590.375
108.8  596
108.7  598.5
108.6  609.875
108.5  628.125
108.4  635.75
108.3  659.625
108.2  687.125
108.1  689.375
108  726.5
107.9  762
107.8  782.5
107.7  798.875
107.6  854.125
107.5  884.375
107.4  945.25
107.3  963.125
107.2  1009.625
107.1  1052
107  1080.125
106.9  1084
106.8  1111.125
106.7  1139.875
106.6  1153
106.5  1151.875
106.4  1158.25
106.3  1146.125
106.2  1144
106.1  1141.5
106  1088.75
105.9  1094.375
105.8  1055.625
105.7  1021.625
105.6  1024.75
105.5  979.625
105.4  948.375
105.3  930
105.2  875.625
105.1  848.125
105  846
104.9  817.25
104.8  772.625
104.7  756.25
104.6  746.875
104.5  697.125
104.4  692.375
104.3  692.375
104.2  668.125
104.1  646.625
104  611.125
103.9  616
103.8  605.875
103.7  598.125
103.6  589
103.5  572.75
103.4  569.5
103.3  566.125
103.2  562.25
103.1  565.625
103  566.375
102.9  556.875
102.8  548.875
102.7  565.875
102.6  543.5
102.5  541.25
102.4  548.625
102.3  543.625
102.2  549.25
102.1  544.875
102  536.125
101.9  546.625
101.8  541.25
101.7  532.125
101.6  516.375
101.5  543
101.4  548.75
101.3  546.5
101.2  541.5
101.1  536.125
101  535.875
100.9  525.625
100.8  534.375
100.7  537.125
100.6  523.5
100.5  533.125
100.4  545.875
100.3  524.125
100.2  523.625
100.1  539.375
100  546.25
99.9  527
99.8  531.75
99.7  544
99.6  525.125
99.5  533.625
99.4  539
99.3  529.75
99.2  535.625
99.1  545
99  536
98.9  535.625
98.8  522
98.7  544.5
98.6  542.5
98.5  543.25
98.4  521.25
98.3  537.25
98.2  536.125
98.1  525.125
98  542.375

# Region:            Cl2p
# Acquisition Date:  12/13/21 20:22:34 UTC
# Analysis Method:   XPS
# Analyzer:          Phoibos 100 R6
# Analyzer Lens:     LargeArea:1.5kV
# Analyzer Slit:     1:0.2x20\B:open
# Scan Mode:         FixedAnalyzerTransmission
# Curves/Scan:       1
# Values/Curve:      121
# Dwell Time:        0.8
# Excitation Energy: 1486.61
# Binding Energy:    206
# Pass Energy:       30
# Bias Voltage:      90
# Detector Voltage:  2600
# Eff. Workfunction: 4.309
# Source:            X-Ray Dummy
# Comment:           
#
# Cycle: 0
# Number of Scans: 10
#
# Cycle: 0, Curve: 0
# Acquisition Date: 12/13/21 20:22:34 UTC
#
# ColumnLabels: energy counts/s
#
206  773.875
205.9  781.625
205.8  781.5
205.7  773.5
205.6  776
205.5  777.375
205.4  779.875
205.3  781.375
205.2  763.125
205.1  801.375
205  779.625
204.9  768.375
204.8  783.375
204.7  774.5
204.6  774.375
204.5  782.875
204.4  781.125
204.3  775.375
204.2  769.75
204.1  775.75
204  784.625
203.9  767.125
203.8  769.75
203.7  770.25
203.6  783.5
203.5  765.625
203.4  779.625
203.3  782.875
203.2  797.75
203.1  787.625
203  767.375
202.9  792.25
202.8  759.125
202.7  802.625
202.6  796.75
202.5  783.125
202.4  797.625
202.3  788.25
202.2  778.125
202.1  780.5
202  797.625
201.9  789
201.8  802.875
201.7  802.75
201.6  791.75
201.5  790.25
201.4  804.5
201.3  791.75
201.2  767.25
201.1  780.125
201  799.5
200.9  777.5
200.8  782.75
200.7  777.75
200.6  781.375
200.5  780.125
200.4  793.5
200.3  783.375
200.2  774.75
200.1  784.75
200  778.875
199.9  774.375
199.8  767.375
199.7  783.25
199.6  777.625
199.5  781.625
199.4  783.5
199.3  769.625
199.2  784.375
199.1  776.875
199  759.5
198.9  779.875
198.8  772.375
198.7  774.5
198.6  772.125
198.5  765
198.4  770.875
198.3  779.5
198.2  770.25
198.1  766.5
198  765.25
197.9  772.625
197.8  782.375
197.7  754.125
197.6  774
197.5  772.5
197.4  740.25
197.3  775.875
197.2  784.625
197.1  763.625
197  773.625
196.9  764.875
196.8  764.5
196.7  782
196.6  766.375
196.5  786.375
196.4  766.75
196.3  778
196.2  782.125
196.1  763.25
196  755.125
195.9  756.75
195.8  788.5
195.7  771.125
195.6  775.5
195.5  765.75
195.4  765.25
195.3  782
195.2  767.75
195.1  761.625
195  753.5
194.9  776.125
194.8  774.75
194.7  781.75
194.6  764.5
194.5  768.875
194.4  793.25
194.3  764.375
194.2  781.875
194.1  771.375
194  778.5

# Region:            Ba3d
# Acquisition Date:  12/13/21 20:23:56 UTC
# Analysis Method:   XPS
# Analyzer:          Phoibos 100 R6
# Analyzer Lens:     LargeArea:1.5kV
# Analyzer Slit:     1:0.2x20\B:open
# Scan Mode:         FixedAnalyzerTransmission
# Curves/Scan:       1
# Values/Curve:      101
# Dwell Time:        0.8
# Excitation Energy: 1486.61
# Binding Energy:    790
# Pass Energy:       30
# Bias Voltage:      90
# Detector Voltage:  2600
# Eff. Workfunction: 4.309
# Source:            X-Ray Dummy
# Comment:           
#
# Cycle: 0
# Number of Scans: 10
#
# Cycle: 0, Curve: 0
# Acquisition Date: 12/13/21 20:23:56 UTC
#
# ColumnLabels: energy counts/s
#
790  2451
789.9  2440
789.8  2441.625
789.7  2461.125
789.6  2456
789.5  2469.625
789.4  2413
789.3  2426.875
789.2  2457.25
789.1  2481.625
789  2475.125
788.9  2464.625
788.8  2436.375
788.7  2444.5
788.6  2478.25
788.5  2441.625
788.4  2441.625
788.3  2464.5
788.2  2463.875
788.1  2460.625
788  2481
787.9  2441.875
787.8  2467
787.7  2441.25
787.6  2474
787.5  2461.375
787.4  2455.5
787.3  2490.375
787.2  2450.625
787.1  2437.875
787  2478.375
786.9  2467.875
786.8  2439.625
786.7  2439.125
786.6  2457.75
786.5  2455.625
786.4  2461.375
786.3  2454
786.2  2465.125
786.1  2474.75
786  2457
785.9  2485.25
785.8  2451.875
785.7  2456.125
785.6  2476
785.5  2461.25
785.4  2495.5
785.3  2473.25
785.2  2476.5
785.1  2483.875
785  2458.625
784.9  2473.375
784.8  2497.625
784.7  2484.125
784.6  2481.25
784.5  2504.875
784.4  2479.5
784.3  2524.25
784.2  2490.25
784.1  2540.5
784  2500.375
783.9  2527.375
783.8  2516.125
783.7  2547.125
783.6  2551.125
783.5  2593.5
783.4  2566.75
783.3  2572.5
783.2  2613.5
783.1  2588.75
783  2632.125
782.9  2667.625
782.8  2628.125
782.7  2651.25
782.6  2689
782.5  2690.375
782.4  2727.625
782.3  2757.875
782.2  2770.25
782.1  2806
782  2834.25
781.9  2830
781.8  2866.25
781.7  2839.625
781.6  2846.75
781.5  2844
781.4  2870.625
781.3  2822
781.2  2868.125
781.1  2818.5
781  2795.25
780.9  2776.375
780.8  2784
780.7  2716.875
780.6  2714.875
780.5  2714
780.4  2687.625
780.3  2626.375
780.2  2595.5
780.1  2583.875
780  2591.875

