# Created by:        SpecsLab Prodigy, Version 4.60.2-r85849 
#
# XY-Serializer Export Settings:
#   Comment Prefix:           #
#   Output meta data:         yes
#   Energy Axis:              Binding Energy
#   Count Rate:               Counts per Second
#   Separate Scan Data:       no
#   Separate Channel Data:    no
#   External Channel Data:    yes
#   Transmission Function:    no
#   ErrorBar:                 no
#   Operation Results:        yes
#   Time Zone Format:         UTC
#
# Group:             20210507_Au111_clean
#
# Region:            N 1s
# Acquisition Date:  05/23/21 07:46:45 UTC
# Analysis Method:   XPS
# Analyzer:          Phoibos 100 R6
# Analyzer Lens:     LargeArea:1.5kV
# Analyzer Slit:     1:0.2x20\B:open
# Scan Mode:         FixedAnalyzerTransmission
# Curves/Scan:       1
# Values/Curve:      101
# Dwell Time:        0.8
# Excitation Energy: 1486.61
# Binding Energy:    405
# Pass Energy:       30
# Bias Voltage:      90
# Detector Voltage:  2400
# Eff. Workfunction: 4.309
# Source:            X-Ray Dummy
# Comment:           
#
# Cycle: 0
# Number of Scans: 100
#
# Cycle: 0, Curve: 0
# Acquisition Date: 05/23/21 07:46:45 UTC
#
# ColumnLabels: energy counts/s
#
405  4380.525
404.9  4378.55
404.8  4385.0625
404.7  4386.25
404.6  4383.25
404.5  4386.65
404.4  4394.0625
404.3  4405.1375
404.2  4394.275
404.1  4396.95
404  4396.95
403.9  4398.65
403.8  4410.0375
403.7  4405.55
403.6  4404.0375
403.5  4409.3875
403.4  4415.6625
403.3  4415.5375
403.2  4426.4625
403.1  4418.3
403  4419.3
402.9  4437.4875
402.8  4423.65
402.7  4428.3625
402.6  4443.025
402.5  4428.1125
402.4  4451.1625
402.3  4458.925
402.2  4460.075
402.1  4460.875
402  4462.5375
401.9  4473.6875
401.8  4457.0625
401.7  4479.4375
401.6  4466.475
401.5  4489.7375
401.4  4494.75
401.3  4473.9125
401.2  4490.475
401.1  4486.6625
401  4494.6625
400.9  4485.3625
400.8  4490.1625
400.7  4479.125
400.6  4492.275
400.5  4489.55
400.4  4494.9875
400.3  4488.7625
400.2  4491.7375
400.1  4504.7125
400  4494.7
399.9  4486.0125
399.8  4481.825
399.7  4478.6875
399.6  4476.1875
399.5  4480.5125
399.4  4474.1375
399.3  4469.325
399.2  4458.5625
399.1  4454.7125
399  4465.4625
398.9  4471.25
398.8  4465.45
398.7  4460.1875
398.6  4446.1125
398.5  4441.0875
398.4  4459.575
398.3  4428.85
398.2  4441.5
398.1  4441.5125
398  4443.0375
397.9  4436.35
397.8  4415.625
397.7  4439.875
397.6  4431.125
397.5  4420.725
397.4  4429.1375
397.3  4426.2375
397.2  4434.475
397.1  4428.5875
397  4421.8375
396.9  4412.55
396.8  4429.225
396.7  4427.775
396.6  4415.7875
396.5  4428.8
396.4  4423.4375
396.3  4428.8125
396.2  4433.025
396.1  4424.5875
396  4426.15
395.9  4455.425
395.8  4443.525
395.7  4441.525
395.6  4452.55
395.5  4438.6375
395.4  4468.4125
395.3  4439.55
395.2  4448.2
395.1  4443.3125
395  4458.7125

# Region:            C 1s
# Acquisition Date:  05/23/21 00:13:47 UTC
# Analysis Method:   XPS
# Analyzer:          Phoibos 100 R6
# Analyzer Lens:     LargeArea:1.5kV
# Analyzer Slit:     1:0.2x20\B:open
# Scan Mode:         FixedAnalyzerTransmission
# Curves/Scan:       1
# Values/Curve:      151
# Dwell Time:        0.8
# Excitation Energy: 1486.61
# Binding Energy:    295
# Pass Energy:       30
# Bias Voltage:      90
# Detector Voltage:  2400
# Eff. Workfunction: 4.309
# Source:            X-Ray Dummy
# Comment:           
#
# Cycle: 0
# Number of Scans: 30
#
# Cycle: 0, Curve: 0
# Acquisition Date: 05/23/21 00:13:47 UTC
#
# ColumnLabels: energy counts/s
#
295  2581.625
294.9  2569.9583
294.8  2575.6667
294.7  2570.4583
294.6  2576.5
294.5  2592.75
294.4  2582.5417
294.3  2566.1667
294.2  2563.75
294.1  2570.6667
294  2569.375
293.9  2575.6667
293.8  2571.7083
293.7  2587.7917
293.6  2559.125
293.5  2570.875
293.4  2566.0833
293.3  2589.8333
293.2  2576.875
293.1  2577.0833
293  2603.0417
292.9  2572.3333
292.8  2586.5417
292.7  2572.25
292.6  2577.9167
292.5  2591.7917
292.4  2604.0417
292.3  2581.5833
292.2  2596.3333
292.1  2582.75
292  2567.375
291.9  2572.3333
291.8  2597.7083
291.7  2612.9583
291.6  2594.7083
291.5  2587.125
291.4  2601
291.3  2600.125
291.2  2610.4583
291.1  2591.7083
291  2604.2083
290.9  2609.9583
290.8  2587.625
290.7  2582.6667
290.6  2605.2083
290.5  2602.375
290.4  2611.7917
290.3  2602.0417
290.2  2619.1667
290.1  2605.5417
290  2607.3333
289.9  2585.2917
289.8  2602.2917
289.7  2611.6667
289.6  2606.7083
289.5  2619.6667
289.4  2616.875
289.3  2641
289.2  2646.7083
289.1  2633.875
289  2659.9583
288.9  2641.7083
288.8  2659.125
288.7  2660.5417
288.6  2679.25
288.5  2689
288.4  2708.25
288.3  2721.4583
288.2  2759.7917
288.1  2747.8333
288  2769.9583
287.9  2803.0833
287.8  2838.3333
287.7  2827.2917
287.6  2844.9583
287.5  2882.4583
287.4  2887.875
287.3  2899.25
287.2  2913.2083
287.1  2944.875
287  2958.7083
286.9  2946.125
286.8  2964.6667
286.7  2986.625
286.6  2987.625
286.5  2991.8333
286.4  2986.8333
286.3  3004.2917
286.2  2997.4167
286.1  3003.7083
286  3016.4167
285.9  2994.5
285.8  2983.3333
285.7  2986.375
285.6  3017.0417
285.5  2996.4583
285.4  2979.375
285.3  2996.0417
285.2  2988.9583
285.1  2951.375
285  2921.9167
284.9  2936.5
284.8  2896.375
284.7  2870.9583
284.6  2854.8333
284.5  2809.9167
284.4  2837.125
284.3  2786.625
284.2  2760.2083
284.1  2743.9167
284  2719.7083
283.9  2723.8333
283.8  2680.8333
283.7  2668.7917
283.6  2664.4583
283.5  2657.125
283.4  2636
283.3  2627.0417
283.2  2638.5
283.1  2604.0833
283  2615
282.9  2598.625
282.8  2611.625
282.7  2612.7083
282.6  2598.4167
282.5  2590.9583
282.4  2594.3333
282.3  2574.9167
282.2  2604.4583
282.1  2587.1667
282  2576.9167
281.9  2577.75
281.8  2576
281.7  2576.4167
281.6  2572.7917
281.5  2591
281.4  2562.9167
281.3  2563
281.2  2561.5417
281.1  2574.0833
281  2562.5
280.9  2572.0417
280.8  2552
280.7  2575.7083
280.6  2576.3333
280.5  2561.5
280.4  2554.5833
280.3  2553.1667
280.2  2571.875
280.1  2554.875
280  2567.75

# Region:            O 1s
# Acquisition Date:  05/23/21 09:26:31 UTC
# Analysis Method:   XPS
# Analyzer:          Phoibos 100 R6
# Analyzer Lens:     LargeArea:1.5kV
# Analyzer Slit:     1:0.2x20\B:open
# Scan Mode:         FixedAnalyzerTransmission
# Curves/Scan:       1
# Values/Curve:      351
# Dwell Time:        0.8
# Excitation Energy: 1486.61
# Binding Energy:    560
# Pass Energy:       30
# Bias Voltage:      90
# Detector Voltage:  2400
# Eff. Workfunction: 4.309
# Source:            X-Ray Dummy
# Comment:           
#
# Cycle: 0
# Number of Scans: 120
#
# Cycle: 0, Curve: 0
# Acquisition Date: 05/23/21 09:26:31 UTC
#
# ColumnLabels: energy counts/s
#
560  4624.6667
559.9  4625.5208
559.8  4637.6042
559.7  4625.2292
559.6  4627.2292
559.5  4636.7292
559.4  4631.5104
559.3  4637.7708
559.2  4640.4375
559.1  4626.6146
559  4624.3646
558.9  4629.6771
558.8  4634.1458
558.7  4619.0625
558.6  4631.7708
558.5  4629.7292
558.4  4629.0729
558.3  4638.4688
558.2  4638.4792
558.1  4615.3229
558  4630.25
557.9  4622.7604
557.8  4639.6563
557.7  4625.0938
557.6  4629.7188
557.5  4638.0938
557.4  4644.9583
557.3  4618.7188
557.2  4637.3021
557.1  4622.125
557  4632.8854
556.9  4638.4167
556.8  4629.9688
556.7  4635.4688
556.6  4636.6771
556.5  4639.5208
556.4  4648.5417
556.3  4631.1354
556.2  4636.5833
556.1  4631.5104
556  4634.8438
555.9  4640.9167
555.8  4641.7917
555.7  4631.6458
555.6  4641.6563
555.5  4654.0729
555.4  4652.8229
555.3  4657.0938
555.2  4657.7188
555.1  4669
555  4652.5208
554.9  4674.3958
554.8  4664.4375
554.7  4659.0417
554.6  4663.9167
554.5  4667.1563
554.4  4667.3229
554.3  4689.4167
554.2  4676.5104
554.1  4684.125
554  4697.1771
553.9  4697.5
553.8  4689.2188
553.7  4706.5104
553.6  4710.7604
553.5  4714.4688
553.4  4714.9063
553.3  4713.3229
553.2  4737.5938
553.1  4727.7083
553  4739.5729
552.9  4739.9688
552.8  4747.4271
552.7  4752.7396
552.6  4766.125
552.5  4765.7083
552.4  4768
552.3  4790.8958
552.2  4801.1354
552.1  4813.3958
552  4829.375
551.9  4817.9063
551.8  4844.0104
551.7  4853.3958
551.6  4860.375
551.5  4881.1667
551.4  4886.3958
551.3  4887.4688
551.2  4901.9167
551.1  4913.9688
551  4940.3229
550.9  4944.2708
550.8  4968.5521
550.7  4975.0104
550.6  4988.8438
550.5  5012.5625
550.4  5028.2083
550.3  5046.5104
550.2  5056.8021
550.1  5080.5729
550  5112.2708
549.9  5121.3958
549.8  5147.125
549.7  5174.7604
549.6  5200.5729
549.5  5213.4688
549.4  5246.3542
549.3  5276.7917
549.2  5314.5625
549.1  5334.2604
549  5380.0729
548.9  5399.2604
548.8  5410.8438
548.7  5455.4271
548.6  5478.0938
548.5  5504.625
548.4  5538.6979
548.3  5590.8854
548.2  5602.1875
548.1  5632.7292
548  5657.3646
547.9  5704.4271
547.8  5727.4896
547.7  5747.4063
547.6  5775.0521
547.5  5795.1563
547.4  5820.1146
547.3  5826.8229
547.2  5865.2396
547.1  5873.6042
547  5864.8542
546.9  5886.6042
546.8  5899.2188
546.7  5909.0521
546.6  5890.4167
546.5  5878.0729
546.4  5889.4792
546.3  5858.2917
546.2  5862.8333
546.1  5833.7083
546  5817.25
545.9  5798.9375
545.8  5764.1458
545.7  5740.0938
545.6  5712.5417
545.5  5680.5625
545.4  5639.7292
545.3  5613.6458
545.2  5564.7292
545.1  5526.6458
545  5502.0208
544.9  5461.1875
544.8  5414.2604
544.7  5379.7292
544.6  5340.125
544.5  5299.2813
544.4  5265.3438
544.3  5219.5938
544.2  5206.4167
544.1  5155.8542
544  5120.5521
543.9  5102.3542
543.8  5071.5625
543.7  5032.2396
543.6  5008.7917
543.5  4970.0833
543.4  4943.0521
543.3  4926.9688
543.2  4894.6875
543.1  4879.1875
543  4843.1667
542.9  4817.8646
542.8  4792.0417
542.7  4760.7083
542.6  4752.5104
542.5  4726.8958
542.4  4711.5833
542.3  4690.8438
542.2  4674.875
542.1  4658.75
542  4646
541.9  4624.6667
541.8  4607.75
541.7  4589.9688
541.6  4592.2917
541.5  4576.0313
541.4  4565.8646
541.3  4542.2292
541.2  4537.0313
541.1  4513.8021
541  4500.1979
540.9  4513.4792
540.8  4500.7083
540.7  4475.9063
540.6  4486.6979
540.5  4454.9896
540.4  4447.0313
540.3  4452.1667
540.2  4434.5729
540.1  4432.7188
540  4425.9479
539.9  4415.5313
539.8  4415.6042
539.7  4400.5313
539.6  4405.6667
539.5  4391.0729
539.4  4397.6667
539.3  4382.4583
539.2  4378.0729
539.1  4369.9063
539  4373.0417
538.9  4356.7396
538.8  4364.3438
538.7  4362.1563
538.6  4362.6667
538.5  4355.4896
538.4  4362.3958
538.3  4352.9792
538.2  4342.3333
538.1  4348.6458
538  4352.8542
537.9  4348.0104
537.8  4345.0104
537.7  4335
537.6  4350.1563
537.5  4339.0417
537.4  4357.6563
537.3  4345.5313
537.2  4337.2083
537.1  4333.5625
537  4327.1458
536.9  4328.1563
536.8  4337.875
536.7  4329.2188
536.6  4333.25
536.5  4328.5625
536.4  4322.0313
536.3  4317.9479
536.2  4325.1563
536.1  4326.4479
536  4323.8958
535.9  4334.0208
535.8  4321.6354
535.7  4320.7917
535.6  4332.8229
535.5  4324.0417
535.4  4316.6354
535.3  4336.0208
535.2  4334.9583
535.1  4353.8542
535  4356.6979
534.9  4364.2813
534.8  4360.1042
534.7  4386.9271
534.6  4387.1042
534.5  4407.5729
534.4  4437.6458
534.3  4455.8229
534.2  4472
534.1  4481.625
534  4498.5938
533.9  4513.0729
533.8  4526.1563
533.7  4520.2917
533.6  4543.9167
533.5  4526.2604
533.4  4525.1042
533.3  4541.4063
533.2  4521.4792
533.1  4520.1771
533  4486.4375
532.9  4466.8854
532.8  4460.9479
532.7  4420.6771
532.6  4415.9271
532.5  4388.2083
532.4  4362.0938
532.3  4344.8854
532.2  4327.5104
532.1  4323.2292
532  4295.9063
531.9  4275.0104
531.8  4270.5104
531.7  4271.0208
531.6  4268.0521
531.5  4255.6042
531.4  4254.6875
531.3  4238.7813
531.2  4228.3646
531.1  4229.7813
531  4210.3542
530.9  4216.25
530.8  4201.9688
530.7  4181.6875
530.6  4168.5729
530.5  4169.0625
530.4  4149.5104
530.3  4148.9688
530.2  4132.1042
530.1  4124.8646
530  4126.0938
529.9  4099.3854
529.8  4108.8854
529.7  4089.6146
529.6  4081.5833
529.5  4076.8021
529.4  4062.625
529.3  4069.9167
529.2  4057.8958
529.1  4075.0417
529  4056.1146
528.9  4050.1979
528.8  4046.8646
528.7  4057.1042
528.6  4046.2604
528.5  4050.7083
528.4  4043.5938
528.3  4043.2917
528.2  4031.7083
528.1  4047.4063
528  4047.2813
527.9  4046.1458
527.8  4039
527.7  4043.7813
527.6  4044.5
527.5  4040.0104
527.4  4032.7604
527.3  4035.2188
527.2  4024.6146
527.1  4030.6875
527  4024.1354
526.9  4039.0833
526.8  4025.8229
526.7  4029.8646
526.6  4025.9896
526.5  4026.1354
526.4  4026.8438
526.3  4013.0104
526.2  4020.9792
526.1  4019.0938
526  4023.9063
525.9  4015.8542
525.8  4018.9792
525.7  4018.8646
525.6  4015.8229
525.5  4008.4583
525.4  4026.2708
525.3  4014.3125
525.2  4028.4375
525.1  4016.9792
525  4026.4375

# Region:            Ba 3d
# Acquisition Date:  05/23/21 02:45:22 UTC
# Analysis Method:   XPS
# Analyzer:          Phoibos 100 R6
# Analyzer Lens:     LargeArea:1.5kV
# Analyzer Slit:     1:0.2x20\B:open
# Scan Mode:         FixedAnalyzerTransmission
# Curves/Scan:       1
# Values/Curve:      81
# Dwell Time:        0.8
# Excitation Energy: 1486.61
# Binding Energy:    784
# Pass Energy:       30
# Bias Voltage:      90
# Detector Voltage:  2400
# Eff. Workfunction: 4.309
# Source:            X-Ray Dummy
# Comment:           
#
# Cycle: 0
# Number of Scans: 50
#
# Cycle: 0, Curve: 0
# Acquisition Date: 05/23/21 02:45:22 UTC
#
# ColumnLabels: energy counts/s
#
784  5335.7
783.9  5322.6
783.8  5341.675
783.7  5353.45
783.6  5336.075
783.5  5344.075
783.4  5311.85
783.3  5341.575
783.2  5329.075
783.1  5342.175
783  5341.175
782.9  5364.475
782.8  5351.3
782.7  5348.55
782.6  5363.05
782.5  5373.7
782.4  5365.525
782.3  5375.575
782.2  5355.75
782.1  5381.425
782  5396.875
781.9  5400.275
781.8  5406.225
781.7  5396.575
781.6  5420.025
781.5  5406.625
781.4  5403.175
781.3  5416.3
781.2  5428.45
781.1  5431.275
781  5415.575
780.9  5433.125
780.8  5435.825
780.7  5438.4
780.6  5422.625
780.5  5394.85
780.4  5398.65
780.3  5389.125
780.2  5374.275
780.1  5384.475
780  5357.05
779.9  5357.475
779.8  5366.275
779.7  5345.325
779.6  5354.825
779.5  5335.575
779.4  5304.6
779.3  5337.45
779.2  5328.625
779.1  5304.025
779  5311
778.9  5324.7
778.8  5307.45
778.7  5294.5
778.6  5306.075
778.5  5319.6
778.4  5318.05
778.3  5327.725
778.2  5306.025
778.1  5323.075
778  5294.125
777.9  5294.05
777.8  5317.575
777.7  5301.175
777.6  5290.9
777.5  5293.4
777.4  5294.875
777.3  5289.75
777.2  5282.675
777.1  5284.675
777  5273.625
776.9  5300.3
776.8  5290.6
776.7  5279.125
776.6  5288.675
776.5  5286.15
776.4  5287.125
776.3  5292.175
776.2  5307.85
776.1  5285.275
776  5282.2

# Operation:         Peak Fit
# Parameter: "Transition" = 
# Parameter: "Label" = 
# Parameter: "Background Method" = Tougaard
# Parameter: "Peak Shape" = Voigt
# Parameter: "Asymmetric Peak" = false
# Parameter: "FWHM-Annotation" = S-B = <Signal-BG:@>\nFWHM = <FWHM:@>\nArea = <Area:@>
# Parameter: "Peak-Annotation" = <Label>\n<Transition>\nE = <Center:@>
#
# Result:
# Number of Results: 2
# Parameter: "Transition" = 
# Parameter: "Label" = 
# Parameter: "Center" = 781.04834684694322 eV +- 0.041313670463637209
# Parameter: "Area" = 548.56702482690503 cps eV +- 88.053543491387984
# Parameter: "FWHM Lorentzian" = 2.3089625582001174 eV +- 0.65588869541352812
# Parameter: "FWHM Gaussian" = 0.76708393047032264 eV +- 0.95116487208184908
# Parameter: "Asymmetry" = 0 +- 0
# Parameter: "Tougaard B" = 63526.790703202896 eV^2 +- 14907.439164646095
# Parameter: "Tougaard C" = 1643 eV^2 +- 0
# Parameter: "FWHM" = 2.5546614129366545 eV
# Parameter: "Offset (0th order)" = 5279.9781485154363 cps +- 5.6982254937170183
# Parameter: "Abbe factor" = 0.93500717012556578
# Parameter: "Reduced Chi Square" = 0.97538686968023414
# Parameter: "Q Probability" = 0.53824539698605034
# Parameter: "Number of performed iterations" = 20
# Parameter: "Fit termination reason" = ConvergedInParameter
# Parameter: "Signal" = 5428.7761903185001 cps
# Parameter: "Signal-BG" = 141.32376265669214 cps
#
# Result Name:       Background
# Number of Curves:  1
#
# Curve:             0
# Values/Curve:      64
#
784  5314.888
783.87302  5313.4302
783.74603  5311.9898
783.61905  5310.5671
783.49206  5309.1623
783.36508  5307.7761
783.2381  5306.4092
783.11111  5305.0621
782.98413  5303.7359
782.85714  5302.4317
782.73016  5301.1508
782.60317  5299.8946
782.47619  5298.665
782.34921  5297.4639
782.22222  5296.2938
782.09524  5295.1572
781.96825  5294.057
781.84127  5292.9962
781.71429  5291.9782
781.5873  5291.006
781.46032  5290.0827
781.33333  5289.2111
781.20635  5288.3931
781.07937  5287.6303
780.95238  5286.9231
780.8254  5286.2711
780.69841  5285.6729
780.57143  5285.1264
780.44444  5284.6287
780.31746  5284.1767
780.19048  5283.7667
780.06349  5283.3951
779.93651  5283.0585
779.80952  5282.7534
779.68254  5282.4767
779.55556  5282.2256
779.42857  5281.9975
779.30159  5281.7902
779.1746  5281.6015
779.04762  5281.4296
778.92063  5281.2731
778.79365  5281.1305
778.66667  5281.0006
778.53968  5280.8822
778.4127  5280.7745
778.28571  5280.6765
778.15873  5280.5874
778.03175  5280.5066
777.90476  5280.4335
777.77778  5280.3675
777.65079  5280.3081
777.52381  5280.2548
777.39683  5280.2074
777.26984  5280.1652
777.14286  5280.1282
777.01587  5280.0958
776.88889  5280.0679
776.7619  5280.0442
776.63492  5280.0245
776.50794  5280.0085
776.38095  5279.996
776.25397  5279.9869
776.12698  5279.981
776  5279.9781

# Result Name:       Peak Fit
# Number of Curves:  1
#
# Curve:             0
# Values/Curve:      64
#
784  5335.498
783.87302  5335.6997
783.74603  5336.1141
783.61905  5336.7704
783.49206  5337.7029
783.36508  5338.9507
783.2381  5340.5594
783.11111  5342.5805
782.98413  5345.0716
782.85714  5348.0958
782.73016  5351.7188
782.60317  5356.0051
782.47619  5361.0103
782.34921  5366.7705
782.22222  5373.2862
782.09524  5380.5033
781.96825  5388.2912
781.84127  5396.4231
781.71429  5404.5655
781.5873  5412.2834
781.46032  5419.0687
781.33333  5424.3933
781.20635  5427.78
781.07937  5428.8786
780.95238  5427.5271
780.8254  5423.7819
780.69841  5417.9067
780.57143  5410.3255
780.44444  5401.5507
780.31746  5392.1078
780.19048  5382.4722
780.06349  5373.0285
779.93651  5364.0548
779.80952  5355.7262
779.68254  5348.1312
779.55556  5341.2928
779.42857  5335.1898
779.30159  5329.7741
779.1746  5324.9839
779.04762  5320.7531
778.92063  5317.0164
778.79365  5313.7132
778.66667  5310.7882
778.53968  5308.1929
778.4127  5305.8845
778.28571  5303.8259
778.15873  5301.9853
778.03175  5300.3353
777.90476  5298.8521
777.77778  5297.5154
777.65079  5296.3079
777.52381  5295.2144
777.39683  5294.2218
777.26984  5293.3191
777.14286  5292.4962
777.01587  5291.7448
776.88889  5291.0575
776.7619  5290.4276
776.63492  5289.8495
776.50794  5289.3183
776.38095  5288.8293
776.25397  5288.3788
776.12698  5287.9633
776  5287.5797

# Region:            overview
# Acquisition Date:  05/22/21 19:10:29 UTC
# Analysis Method:   XPS
# Analyzer:          Phoibos 100 R6
# Analyzer Lens:     MediumArea:1.5kV
# Analyzer Slit:     1:0.2x20\B:open
# Scan Mode:         FixedAnalyzerTransmission
# Curves/Scan:       1
# Values/Curve:      1205
# Dwell Time:        0.2
# Excitation Energy: 1486.61
# Binding Energy:    1200
# Pass Energy:       50
# Bias Voltage:      90
# Detector Voltage:  2400
# Eff. Workfunction: 4.309
# Source:            X-Ray Dummy
# Comment:           
#
# Cycle: 0
# Number of Scans: 1
#
# Cycle: 0, Curve: 0
# Acquisition Date: 05/22/21 19:10:29 UTC
#
# ColumnLabels: energy counts/s
#
1200  7295
1199  7890
1198  7415
1197  7135
1196  7365
1195  7265
1194  7195
1193  7000
1192  7300
1191  7065
1190  7360
1189  6875
1188  7115
1187  7295
1186  6965
1185  7245
1184  7160
1183  7110
1182  6895
1181  7260
1180  6930
1179  6985
1178  6945
1177  6690
1176  6600
1175  6790
1174  6630
1173  7065
1172  6865
1171  6635
1170  6655
1169  6905
1168  6760
1167  6680
1166  6775
1165  6685
1164  6750
1163  6985
1162  6425
1161  6615
1160  6835
1159  6830
1158  6675
1157  6700
1156  6370
1155  6405
1154  6270
1153  6580
1152  6125
1151  6265
1150  6430
1149  6130
1148  6365
1147  6600
1146  6225
1145  6590
1144  6340
1143  6285
1142  6200
1141  6545
1140  5840
1139  6105
1138  6020
1137  6155
1136  6085
1135  6215
1134  5955
1133  5930
1132  6020
1131  6190
1130  6205
1129  6395
1128  6030
1127  5830
1126  5790
1125  5825
1124  5935
1123  5960
1122  6050
1121  5990
1120  6045
1119  5930
1118  6070
1117  5595
1116  5870
1115  5680
1114  5740
1113  5455
1112  5955
1111  5615
1110  5700
1109  5630
1108  5440
1107  5780
1106  5660
1105  5650
1104  5640
1103  5650
1102  5705
1101  5690
1100  5280
1099  5410
1098  5525
1097  5435
1096  5720
1095  5585
1094  5360
1093  5730
1092  5560
1091  5370
1090  5350
1089  5390
1088  5550
1087  5520
1086  5275
1085  5155
1084  5390
1083  5360
1082  5455
1081  5370
1080  5105
1079  5275
1078  5305
1077  5625
1076  5470
1075  5165
1074  5135
1073  5175
1072  5155
1071  5205
1070  5070
1069  5215
1068  5050
1067  5010
1066  5065
1065  5250
1064  5270
1063  5435
1062  5175
1061  5170
1060  5090
1059  5120
1058  5200
1057  5000
1056  5250
1055  5155
1054  5080
1053  4800
1052  4895
1051  4845
1050  4910
1049  4740
1048  4790
1047  4790
1046  5015
1045  4850
1044  5045
1043  5135
1042  4930
1041  4775
1040  4895
1039  4770
1038  4835
1037  4580
1036  4775
1035  4915
1034  4735
1033  4810
1032  4785
1031  4820
1030  4750
1029  4905
1028  4930
1027  4665
1026  4580
1025  4625
1024  4820
1023  4670
1022  4570
1021  4815
1020  4630
1019  4520
1018  4675
1017  4675
1016  4825
1015  4780
1014  4635
1013  4720
1012  4670
1011  4830
1010  5035
1009  4500
1008  4890
1007  4645
1006  4470
1005  4945
1004  4760
1003  4755
1002  4675
1001  4610
1000  4765
999  4640
998  4880
997  4785
996  4880
995  4740
994  4460
993  4460
992  4810
991  4665
990  4390
989  4595
988  4365
987  4530
986  4645
985  4355
984  4790
983  4745
982  4365
981  4695
980  4550
979  4830
978  4525
977  4610
976  4690
975  4605
974  4615
973  4915
972  4820
971  4345
970  4600
969  4500
968  4800
967  4620
966  4265
965  4370
964  4410
963  4345
962  4440
961  4495
960  4470
959  4355
958  4510
957  4390
956  4320
955  4410
954  4390
953  4280
952  4415
951  4635
950  4400
949  4455
948  4595
947  4735
946  4695
945  4280
944  4455
943  4595
942  4405
941  4245
940  4455
939  4505
938  4590
937  4240
936  4405
935  4450
934  4390
933  4250
932  4040
931  4535
930  4440
929  4555
928  4455
927  4480
926  4210
925  4500
924  4715
923  4265
922  4475
921  4440
920  4460
919  4290
918  4555
917  4275
916  4425
915  4360
914  4840
913  4540
912  4510
911  4330
910  4135
909  4435
908  4475
907  4580
906  4440
905  4630
904  4290
903  4560
902  4650
901  4150
900  4670
899  4150
898  4410
897  4545
896  4710
895  4725
894  4215
893  4275
892  4210
891  4375
890  4315
889  4475
888  4460
887  4135
886  4315
885  4645
884  4165
883  4405
882  4235
881  4435
880  4385
879  4255
878  4435
877  4195
876  4605
875  4305
874  4275
873  4520
872  4235
871  4245
870  4245
869  4315
868  4250
867  4350
866  4105
865  4315
864  4560
863  4600
862  4260
861  4505
860  4240
859  4375
858  4265
857  4500
856  4520
855  4330
854  4220
853  4250
852  4795
851  4465
850  4425
849  4340
848  4430
847  4315
846  4490
845  4445
844  4305
843  4465
842  4080
841  4655
840  4345
839  4140
838  4460
837  4455
836  4345
835  4395
834  4540
833  4490
832  4105
831  4415
830  4130
829  4600
828  4455
827  4315
826  4470
825  4285
824  4710
823  4510
822  4545
821  4425
820  4390
819  4575
818  4520
817  4420
816  4175
815  4500
814  4715
813  4545
812  4425
811  4575
810  4620
809  4435
808  4610
807  4380
806  4690
805  4735
804  4630
803  4515
802  4370
801  4580
800  4585
799  4275
798  4725
797  4610
796  4600
795  4405
794  4615
793  4555
792  4435
791  4575
790  4730
789  4780
788  4470
787  4410
786  4820
785  4825
784  4405
783  4910
782  4690
781  4685
780  4675
779  4695
778  4775
777  4675
776  4590
775  4670
774  4720
773  4635
772  4515
771  4995
770  4770
769  4525
768  4775
767  4660
766  4650
765  4850
764  4845
763  4735
762  4710
761  4900
760  4590
759  4575
758  4575
757  4835
756  4575
755  4715
754  4670
753  4340
752  4530
751  4640
750  4305
749  4610
748  4540
747  4725
746  4890
745  4745
744  4560
743  4775
742  4475
741  4505
740  4440
739  4590
738  4385
737  4310
736  4590
735  4490
734  4765
733  4585
732  4685
731  4555
730  4630
729  4565
728  4750
727  4390
726  4850
725  4565
724  4460
723  4620
722  4575
721  4675
720  4600
719  4705
718  4495
717  4800
716  4625
715  4855
714  4750
713  4825
712  4375
711  4835
710  4495
709  4520
708  4680
707  4570
706  4750
705  4810
704  4450
703  4600
702  4530
701  4630
700  4610
699  4720
698  4750
697  4800
696  4705
695  4935
694  4745
693  4705
692  4760
691  4615
690  4495
689  4570
688  4530
687  4805
686  4630
685  4655
684  4320
683  4910
682  4685
681  4770
680  4960
679  4785
678  4585
677  4935
676  4810
675  4615
674  4905
673  5025
672  4875
671  5050
670  4890
669  4640
668  4895
667  5115
666  5215
665  4855
664  5040
663  4610
662  4830
661  4965
660  5180
659  4770
658  5050
657  4705
656  4850
655  4790
654  5205
653  5070
652  4855
651  4680
650  5045
649  5100
648  4960
647  4980
646  4940
645  4825
644  5300
643  5170
642  5620
641  5375
640  5105
639  5075
638  5295
637  4985
636  5115
635  5125
634  5170
633  4845
632  4840
631  4845
630  5005
629  4820
628  4845
627  5010
626  5365
625  5075
624  4735
623  4915
622  4800
621  4965
620  4810
619  4865
618  4770
617  4700
616  4850
615  5160
614  5095
613  4810
612  5210
611  4725
610  4920
609  5185
608  5150
607  5295
606  4935
605  4865
604  5115
603  5070
602  5250
601  5390
600  4890
599  5275
598  5150
597  5200
596  5355
595  5220
594  5115
593  5265
592  5195
591  4820
590  5350
589  5395
588  5260
587  5200
586  5100
585  5070
584  5185
583  5205
582  5365
581  5275
580  5460
579  5090
578  5290
577  5415
576  5145
575  5260
574  5395
573  5375
572  5395
571  5535
570  5475
569  5375
568  5465
567  5470
566  5365
565  5375
564  5595
563  5195
562  5335
561  5185
560  5630
559  5390
558  5385
557  5280
556  5365
555  5395
554  5580
553  5695
552  5405
551  5895
550  6000
549  6520
548  7190
547  6905
546  6700
545  6520
544  5920
543  5980
542  5675
541  5670
540  4985
539  5230
538  5195
537  5290
536  5130
535  5300
534  5095
533  5435
532  5395
531  4955
530  4740
529  4960
528  4780
527  4870
526  4710
525  4630
524  5080
523  5010
522  4620
521  4780
520  4960
519  5260
518  5010
517  5020
516  4870
515  4825
514  4680
513  4955
512  4915
511  4900
510  4905
509  5230
508  4820
507  4850
506  4780
505  5085
504  4975
503  4965
502  5015
501  4930
500  5010
499  5125
498  5045
497  4865
496  4790
495  5005
494  5040
493  4970
492  5205
491  4950
490  5085
489  5065
488  5110
487  4945
486  5135
485  5185
484  5310
483  4930
482  5235
481  5100
480  5060
479  5245
478  5100
477  5360
476  5095
475  5440
474  5415
473  5220
472  5155
471  5505
470  5455
469  5375
468  5025
467  5325
466  5645
465  5350
464  5180
463  5250
462  5225
461  5110
460  5380
459  5050
458  5335
457  5200
456  5420
455  5255
454  5390
453  5355
452  5420
451  5355
450  5380
449  5190
448  5275
447  5365
446  5795
445  5575
444  5625
443  5370
442  5655
441  5345
440  5560
439  5370
438  5375
437  5450
436  5820
435  5350
434  5415
433  5725
432  5650
431  5605
430  5550
429  5735
428  5630
427  5470
426  5810
425  5730
424  5600
423  5985
422  5735
421  5715
420  5715
419  5805
418  5780
417  5885
416  5815
415  5665
414  5840
413  6005
412  5995
411  5705
410  6110
409  6005
408  6105
407  5755
406  5935
405  6045
404  5955
403  5935
402  6055
401  6070
400  6190
399  6130
398  5950
397  5870
396  6230
395  6215
394  6450
393  6005
392  6020
391  5945
390  6105
389  6330
388  6500
387  6500
386  6105
385  6075
384  6435
383  6250
382  6550
381  6420
380  6415
379  6715
378  6480
377  6370
376  6485
375  6720
374  6400
373  6315
372  6350
371  6550
370  6485
369  6430
368  6530
367  6535
366  6550
365  7050
364  6800
363  6495
362  6665
361  6725
360  6780
359  6570
358  7425
357  7815
356  7790
355  8770
354  9700
353  9435
352  8930
351  8135
350  7390
349  6915
348  6360
347  6390
346  5835
345  6045
344  6070
343  6055
342  6410
341  6240
340  6635
339  7360
338  7650
337  8870
336  10140
335  10365
334  8910
333  7455
332  6700
331  5480
330  5140
329  4845
328  5125
327  4990
326  4775
325  4635
324  4470
323  4615
322  4180
321  4075
320  4205
319  3840
318  3725
317  3755
316  4155
315  3830
314  3900
313  3690
312  3765
311  3675
310  3915
309  3715
308  3725
307  3715
306  3740
305  3615
304  3810
303  3780
302  3735
301  3860
300  3630
299  3745
298  3845
297  3835
296  3925
295  3870
294  3835
293  3740
292  3615
291  3745
290  3990
289  3855
288  3900
287  4135
286  4400
285  4155
284  4120
283  3405
282  3830
281  3545
280  3760
279  4000
278  3730
277  3770
276  3805
275  3640
274  3885
273  3500
272  3650
271  3595
270  3510
269  3725
268  3740
267  3675
266  3740
265  3610
264  3685
263  3785
262  3690
261  3565
260  3420
259  3765
258  3885
257  3565
256  3590
255  3600
254  3535
253  3465
252  3695
251  3575
250  3590
249  3485
248  3710
247  3615
246  3450
245  3885
244  3635
243  3750
242  3695
241  3730
240  3540
239  3620
238  3445
237  3930
236  4115
235  3645
234  3805
233  3610
232  3785
231  3870
230  3820
229  3900
228  3925
227  3615
226  3880
225  3900
224  3555
223  3745
222  3830
221  3710
220  3605
219  3700
218  3910
217  3905
216  3500
215  3710
214  3630
213  3925
212  3865
211  3665
210  3710
209  3900
208  3485
207  3865
206  3960
205  4115
204  3995
203  3840
202  3610
201  3940
200  3900
199  3755
198  4025
197  4155
196  3715
195  3775
194  3785
193  3870
192  3540
191  3715
190  3865
189  3885
188  4095
187  3900
186  4015
185  4125
184  3975
183  4350
182  4075
181  4105
180  4055
179  4255
178  4375
177  4090
176  4095
175  4195
174  3970
173  4095
172  4195
171  4100
170  3830
169  4155
168  4115
167  4125
166  3830
165  3995
164  4265
163  4205
162  4000
161  4355
160  4430
159  4280
158  3995
157  4340
156  4100
155  4390
154  3910
153  4420
152  4055
151  4075
150  4455
149  4470
148  4175
147  4410
146  4270
145  4390
144  4460
143  3950
142  4110
141  4400
140  4535
139  4470
138  4470
137  4510
136  4300
135  4385
134  4550
133  4790
132  4225
131  4670
130  4660
129  4600
128  4585
127  4475
126  4675
125  4440
124  4765
123  4965
122  4625
121  4835
120  4810
119  4825
118  5190
117  5105
116  5050
115  5075
114  5030
113  5015
112  5040
111  5080
110  5245
109  5220
108  4955
107  4890
106  4920
105  4750
104  5050
103  4795
102  4505
101  4855
100  4560
99  4565
98  4650
97  4450
96  4590
95  4540
94  4705
93  4675
92  4880
91  4960
90  5885
89  9770
88  15530
87  11515
86  7485
85  14480
84  17095
83  8825
82  3915
81  3015
80  2880
79  3400
78  3205
77  3380
76  3135
75  3500
74  3335
73  3140
72  2755
71  2515
70  2135
69  2095
68  2010
67  2215
66  2155
65  2170
64  2045
63  2075
62  2205
61  2355
60  2200
59  2380
58  2570
57  2320
56  2405
55  2225
54  2050
53  1940
52  1970
51  1640
50  1935
49  1915
48  1960
47  1855
46  1885
45  1850
44  1930
43  1815
42  1775
41  1795
40  1725
39  1765
38  1710
37  1840
36  1805
35  1800
34  1745
33  1585
32  1910
31  1865
30  1850
29  1825
28  1695
27  1855
26  1925
25  1805
24  1690
23  1685
22  1905
21  1660
20  1735
19  1830
18  1895
17  1805
16  1950
15  1875
14  1735
13  1760
12  1710
11  1665
10  1965
9  1910
8  2115
7  2580
6  2970
5  2865
4  2930
3  2875
2  2265
1  1725
-2.2737368e-013  1490
-1  1290
-2  1345
-3  1450
-4  1330

# Region:            Cl 2p
# Acquisition Date:  05/23/21 00:20:52 UTC
# Analysis Method:   XPS
# Analyzer:          Phoibos 100 R6
# Analyzer Lens:     LargeArea:1.5kV
# Analyzer Slit:     1:0.2x20\B:open
# Scan Mode:         FixedAnalyzerTransmission
# Curves/Scan:       1
# Values/Curve:      91
# Dwell Time:        0.8
# Excitation Energy: 1486.61
# Binding Energy:    204
# Pass Energy:       30
# Bias Voltage:      90
# Detector Voltage:  2400
# Eff. Workfunction: 4.309
# Source:            X-Ray Dummy
# Comment:           
#
# Cycle: 0
# Number of Scans: 30
#
# Cycle: 0, Curve: 0
# Acquisition Date: 05/23/21 00:20:52 UTC
#
# ColumnLabels: energy counts/s
#
204  2501.4167
203.9  2490.2083
203.8  2485.1667
203.7  2478.125
203.6  2495.2917
203.5  2477.25
203.4  2481.375
203.3  2483.25
203.2  2491.0417
203.1  2462.375
203  2489.125
202.9  2502.7917
202.8  2497.9167
202.7  2484.5833
202.6  2465.7083
202.5  2481.875
202.4  2487.125
202.3  2499.1667
202.2  2508.125
202.1  2484.0417
202  2505.2917
201.9  2483.7917
201.8  2498.3333
201.7  2490.375
201.6  2505.1667
201.5  2500.5
201.4  2508.4583
201.3  2496.25
201.2  2507.0417
201.1  2505
201  2492.9583
200.9  2499.875
200.8  2500.5
200.7  2514.375
200.6  2506.8333
200.5  2505.2083
200.4  2512.1667
200.3  2490.9167
200.2  2491.5
200.1  2510.9167
200  2518.9167
199.9  2488.1667
199.8  2491.7083
199.7  2496.2917
199.6  2485.7917
199.5  2500.9583
199.4  2523.125
199.3  2486.2083
199.2  2505.5
199.1  2503.3333
199  2525
198.9  2515.2083
198.8  2509.8333
198.7  2512.3333
198.6  2503.0417
198.5  2515.4583
198.4  2523.8333
198.3  2495.8333
198.2  2510.3333
198.1  2523.6667
198  2501.125
197.9  2496.25
197.8  2510.8333
197.7  2527.4167
197.6  2508.0833
197.5  2510.4167
197.4  2509.375
197.3  2495.5833
197.2  2480.7083
197.1  2517.625
197  2518.875
196.9  2518.6667
196.8  2498.3333
196.7  2496.7083
196.6  2526.9583
196.5  2496.625
196.4  2521.0833
196.3  2522.7917
196.2  2502.6667
196.1  2525.8333
196  2502.375
195.9  2527.75
195.8  2496.9167
195.7  2524.4167
195.6  2509.9167
195.5  2528.6667
195.4  2521.6667
195.3  2507.5417
195.2  2533.25
195.1  2522.2083
195  2511.875

# Region:            Au 4f
# Acquisition Date:  05/22/21 19:26:34 UTC
# Analysis Method:   XPS
# Analyzer:          Phoibos 100 R6
# Analyzer Lens:     LargeArea:1.5kV
# Analyzer Slit:     1:0.2x20\B:open
# Scan Mode:         FixedAnalyzerTransmission
# Curves/Scan:       1
# Values/Curve:      151
# Dwell Time:        0.8
# Excitation Energy: 1486.61
# Binding Energy:    95
# Pass Energy:       30
# Bias Voltage:      90
# Detector Voltage:  2400
# Eff. Workfunction: 4.309
# Source:            X-Ray Dummy
# Comment:           
#
# Cycle: 0
# Number of Scans: 2
#
# Cycle: 0, Curve: 0
# Acquisition Date: 05/22/21 19:26:34 UTC
#
# ColumnLabels: energy counts/s
#
95  2772.5
94.9  2769.375
94.8  2850
94.7  2768.75
94.6  2828.125
94.5  2785.625
94.4  2734.375
94.3  2833.75
94.2  2810
94.1  2723.75
94  2832.5
93.9  2759.375
93.8  2825
93.7  2718.75
93.6  2720.625
93.5  2801.25
93.4  2751.25
93.3  2818.75
93.2  2764.375
93.1  2709.375
93  2852.5
92.9  2774.375
92.8  2773.125
92.7  2820.625
92.6  2767.5
92.5  2825.625
92.4  2846.25
92.3  2847.5
92.2  2760.625
92.1  2813.125
92  2852.5
91.9  2918.125
91.8  2890.625
91.7  2853.125
91.6  2950
91.5  2938.125
91.4  3000.625
91.3  3002.5
91.2  3070.625
91.1  2930.625
91  3035.625
90.9  3065
90.8  3110.625
90.7  3188.125
90.6  3190.625
90.5  3165
90.4  3316.875
90.3  3258.125
90.2  3277.5
90.1  3413.125
90  3393.75
89.9  3523.75
89.8  3659.375
89.7  3776.25
89.6  4062.5
89.5  4216.25
89.4  4508.125
89.3  4659.375
89.2  4957.5
89.1  5411.875
89  5871.25
88.9  6350.625
88.8  6993.125
88.7  7518.125
88.6  8131.875
88.5  8795
88.4  9448.125
88.3  9819.375
88.2  10328.125
88.1  10681.25
88  10961.875
87.9  10956.875
87.8  10757.5
87.7  10550.625
87.6  9982.5
87.5  9365
87.4  8890
87.3  8143.125
87.2  7384.375
87.1  6723.75
87  6150.625
86.9  5561.25
86.8  5103.75
86.7  4741.25
86.6  4561.25
86.5  4206.25
86.4  4219.375
86.3  4056.875
86.2  4047.5
86.1  4142.5
86  4166.875
85.9  4296.25
85.8  4501.875
85.7  4725
85.6  5066.25
85.5  5518.75
85.4  6057.5
85.3  6574.375
85.2  7175.625
85.1  7843.75
85  8665
84.9  9248.75
84.8  10058.125
84.7  10807.5
84.6  11553.125
84.5  11866.25
84.4  12360
84.3  12708.125
84.2  12458.125
84.1  12225
84  11689.375
83.9  11114.375
83.8  10420.625
83.7  9570.625
83.6  8588.75
83.5  7583.75
83.4  6763.125
83.3  5951.25
83.2  5226.25
83.1  4596.875
83  4173.125
82.9  3627.5
82.8  3334.375
82.7  2951.875
82.6  2738.125
82.5  2686.25
82.4  2435
82.3  2408.125
82.2  2310
82.1  2208.125
82  2211.25
81.9  2084.375
81.8  2032.5
81.7  2056.25
81.6  1933.75
81.5  1896.25
81.4  1840
81.3  1937.5
81.2  1857.5
81.1  1917.5
81  1835
80.9  1827.5
80.8  1798.75
80.7  1820.625
80.6  1819.375
80.5  1756.25
80.4  1812.5
80.3  1726.25
80.2  1747.5
80.1  1682.5
80  1695.625

