# Created by:        SpecsLab Prodigy, Version 4.60.2-r85849 
#
# XY-Serializer Export Settings:
#   Comment Prefix:           #
#   Output meta data:         yes
#   Energy Axis:              Binding Energy
#   Count Rate:               Counts per Second
#   Separate Scan Data:       no
#   Separate Channel Data:    no
#   External Channel Data:    yes
#   Transmission Function:    no
#   ErrorBar:                 no
#   Operation Results:        yes
#   Time Zone Format:         UTC
#
# Group:             20210507_Au111_clean
#
# Region:            N 1s
# Acquisition Date:  05/24/21 07:15:02 UTC
# Analysis Method:   XPS
# Analyzer:          Phoibos 100 R6
# Analyzer Lens:     LargeArea:1.5kV
# Analyzer Slit:     1:0.2x20\B:open
# Scan Mode:         FixedAnalyzerTransmission
# Curves/Scan:       1
# Values/Curve:      101
# Dwell Time:        0.8
# Excitation Energy: 1486.61
# Binding Energy:    405
# Pass Energy:       30
# Bias Voltage:      90
# Detector Voltage:  2400
# Eff. Workfunction: 4.309
# Source:            X-Ray Dummy
# Comment:           
#
# Cycle: 0
# Number of Scans: 100
#
# Cycle: 0, Curve: 0
# Acquisition Date: 05/24/21 07:15:02 UTC
#
# ColumnLabels: energy counts/s
#
405  4288.0875
404.9  4295.4625
404.8  4288.425
404.7  4295.8875
404.6  4299.1125
404.5  4303.525
404.4  4302.8875
404.3  4309.6
404.2  4298.3875
404.1  4308.0125
404  4299.4625
403.9  4322.125
403.8  4321.475
403.7  4315.9625
403.6  4320.475
403.5  4318
403.4  4340.6375
403.3  4325.1375
403.2  4333.9125
403.1  4338.575
403  4333.1125
402.9  4339.9875
402.8  4327.65
402.7  4337
402.6  4345.4125
402.5  4364.2
402.4  4358.95
402.3  4364.2
402.2  4364.7875
402.1  4360.7125
402  4367.575
401.9  4372.65
401.8  4385.525
401.7  4375.075
401.6  4382.8875
401.5  4394.4
401.4  4392.4
401.3  4391.225
401.2  4394.975
401.1  4394.1125
401  4399.5125
400.9  4403.5375
400.8  4391.2625
400.7  4396.5125
400.6  4407.55
400.5  4404.4125
400.4  4392.7
400.3  4402.175
400.2  4387.5375
400.1  4386.375
400  4402.1375
399.9  4403.775
399.8  4399.7125
399.7  4401.1625
399.6  4390.8
399.5  4393.9875
399.4  4384.0125
399.3  4388.1125
399.2  4381.8875
399.1  4387.4125
399  4380.7125
398.9  4379.45
398.8  4382.2625
398.7  4361.675
398.6  4364.6
398.5  4377.6375
398.4  4361.1375
398.3  4352.4625
398.2  4355.65
398.1  4341.85
398  4353.3625
397.9  4348.075
397.8  4340.7125
397.7  4340.2625
397.6  4332.275
397.5  4347.025
397.4  4345.375
397.3  4352.375
397.2  4347.65
397.1  4344.4
397  4339.0375
396.9  4340.5375
396.8  4336.7
396.7  4345.0625
396.6  4345.9375
396.5  4338.475
396.4  4355.8
396.3  4338.5
396.2  4336.8125
396.1  4352.1375
396  4335.4375
395.9  4335.875
395.8  4358.1125
395.7  4339.625
395.6  4339.1875
395.5  4346.975
395.4  4361.575
395.3  4356.7625
395.2  4353.575
395.1  4363.5375
395  4352.7125

# Region:            C 1s
# Acquisition Date:  05/23/21 23:41:49 UTC
# Analysis Method:   XPS
# Analyzer:          Phoibos 100 R6
# Analyzer Lens:     LargeArea:1.5kV
# Analyzer Slit:     1:0.2x20\B:open
# Scan Mode:         FixedAnalyzerTransmission
# Curves/Scan:       1
# Values/Curve:      151
# Dwell Time:        0.8
# Excitation Energy: 1486.61
# Binding Energy:    295
# Pass Energy:       30
# Bias Voltage:      90
# Detector Voltage:  2400
# Eff. Workfunction: 4.309
# Source:            X-Ray Dummy
# Comment:           
#
# Cycle: 0
# Number of Scans: 30
#
# Cycle: 0, Curve: 0
# Acquisition Date: 05/23/21 23:41:49 UTC
#
# ColumnLabels: energy counts/s
#
295  2518.2083
294.9  2510.125
294.8  2511.4583
294.7  2492.1667
294.6  2522.1667
294.5  2515.0417
294.4  2508.0833
294.3  2535.5417
294.2  2512.9583
294.1  2537.4167
294  2530.3333
293.9  2532
293.8  2537.625
293.7  2540.875
293.6  2535.7917
293.5  2536.4583
293.4  2519.0417
293.3  2527.0833
293.2  2530.125
293.1  2530.9167
293  2530.8333
292.9  2544.1667
292.8  2521.7917
292.7  2502.0417
292.6  2522.5
292.5  2513.0833
292.4  2524.75
292.3  2537.1667
292.2  2544.4167
292.1  2537.6667
292  2531.9583
291.9  2527.2917
291.8  2529.25
291.7  2539.25
291.6  2518.9167
291.5  2531.2083
291.4  2552.5833
291.3  2552.2083
291.2  2531.2917
291.1  2534.9167
291  2530.875
290.9  2555.25
290.8  2546.2083
290.7  2545.2917
290.6  2552.25
290.5  2543
290.4  2539.875
290.3  2550.7917
290.2  2552.9583
290.1  2529.25
290  2543.7083
289.9  2563.2917
289.8  2553.875
289.7  2539.625
289.6  2569.2917
289.5  2573.625
289.4  2571.3333
289.3  2592
289.2  2585.4583
289.1  2601.875
289  2589.2917
288.9  2611.4167
288.8  2609.7917
288.7  2633.9167
288.6  2635.2917
288.5  2632.6667
288.4  2654.4583
288.3  2666.0417
288.2  2685.7083
288.1  2672.2917
288  2686
287.9  2745.7083
287.8  2745.8333
287.7  2754.4583
287.6  2766.3333
287.5  2794.125
287.4  2802.375
287.3  2826.0833
287.2  2847.6667
287.1  2856.4583
287  2863.0417
286.9  2888.375
286.8  2896.2083
286.7  2892.9583
286.6  2906.875
286.5  2907.875
286.4  2928.625
286.3  2915.75
286.2  2943.4583
286.1  2933.2083
286  2947.5
285.9  2952.4167
285.8  2949.625
285.7  2947.6667
285.6  2930.875
285.5  2926.1667
285.4  2925.2917
285.3  2903.7917
285.2  2895.5
285.1  2871.7083
285  2861.8333
284.9  2848.5417
284.8  2835.4583
284.7  2808.5833
284.6  2788.5
284.5  2765.5417
284.4  2747.8333
284.3  2710.7917
284.2  2695.7917
284.1  2680.375
284  2670.625
283.9  2662.75
283.8  2628.1667
283.7  2593.25
283.6  2614.4583
283.5  2592.625
283.4  2590.4167
283.3  2590.4583
283.2  2568.2917
283.1  2566.7083
283  2549.0417
282.9  2570
282.8  2555.875
282.7  2563.7917
282.6  2539.375
282.5  2537.1667
282.4  2550.8333
282.3  2549.0417
282.2  2531.0833
282.1  2524.125
282  2505.4583
281.9  2540.2083
281.8  2508.4167
281.7  2538.7917
281.6  2505.7083
281.5  2519
281.4  2523.4583
281.3  2524.6667
281.2  2520.375
281.1  2499.625
281  2523.375
280.9  2509.625
280.8  2518.375
280.7  2531.6667
280.6  2502.6667
280.5  2496.5833
280.4  2500.2917
280.3  2494.8333
280.2  2523.2083
280.1  2518.8333
280  2505.6667

# Region:            O 1s
# Acquisition Date:  05/24/21 07:19:47 UTC
# Analysis Method:   XPS
# Analyzer:          Phoibos 100 R6
# Analyzer Lens:     LargeArea:1.5kV
# Analyzer Slit:     1:0.2x20\B:open
# Scan Mode:         FixedAnalyzerTransmission
# Curves/Scan:       1
# Values/Curve:      351
# Dwell Time:        0.8
# Excitation Energy: 1486.61
# Binding Energy:    560
# Pass Energy:       30
# Bias Voltage:      90
# Detector Voltage:  2400
# Eff. Workfunction: 4.309
# Source:            X-Ray Dummy
# Comment:           
#
# Cycle: 0
# Number of Scans: 100
#
# Cycle: 0, Curve: 0
# Acquisition Date: 05/24/21 07:19:47 UTC
#
# ColumnLabels: energy counts/s
#
560  4546.9875
559.9  4545.2
559.8  4547.8
559.7  4539.2125
559.6  4541.3
559.5  4536.1875
559.4  4538.45
559.3  4546.5375
559.2  4533.2125
559.1  4543.0375
559  4539.725
558.9  4534.1875
558.8  4552.5125
558.7  4535.0375
558.6  4541.5375
558.5  4540.9625
558.4  4550.6875
558.3  4541.5375
558.2  4546.9375
558.1  4527.4625
558  4535.4375
557.9  4540.1625
557.8  4537.375
557.7  4555.9875
557.6  4538.5375
557.5  4550.7
557.4  4534.7875
557.3  4548.7625
557.2  4552.7875
557.1  4544.5375
557  4563.575
556.9  4554
556.8  4548.05
556.7  4540.8875
556.6  4533.7
556.5  4550.0125
556.4  4543.9625
556.3  4558.6875
556.2  4554.125
556.1  4548.875
556  4564.075
555.9  4558.8375
555.8  4560.9375
555.7  4571.3375
555.6  4556.4625
555.5  4563.5125
555.4  4571.325
555.3  4571.825
555.2  4576.475
555.1  4565.0875
555  4571.825
554.9  4592.5625
554.8  4580.425
554.7  4586.1625
554.6  4582.85
554.5  4587.4
554.4  4598.3875
554.3  4590.9125
554.2  4599.15
554.1  4595.8875
554  4612.975
553.9  4604.8875
553.8  4627.2625
553.7  4611.8
553.6  4628.8375
553.5  4612.1
553.4  4626.225
553.3  4637.15
553.2  4638.8125
553.1  4658.525
553  4653.35
552.9  4660.1625
552.8  4654.125
552.7  4687.2125
552.6  4669.625
552.5  4681.1375
552.4  4699.85
552.3  4705.625
552.2  4708.2125
552.1  4723.325
552  4728
551.9  4738.5875
551.8  4748.3125
551.7  4753.025
551.6  4776.9625
551.5  4772.675
551.4  4781.5
551.3  4816.325
551.2  4822.1625
551.1  4836.1875
551  4852.325
550.9  4863.3625
550.8  4873.175
550.7  4893
550.6  4900.9625
550.5  4928.675
550.4  4945.1125
550.3  4950.35
550.2  4969.825
550.1  4986.05
550  5030.75
549.9  5039.775
549.8  5049.75
549.7  5092.25
549.6  5099.9375
549.5  5137.225
549.4  5162.9625
549.3  5188.4625
549.2  5216.675
549.1  5243.8625
549  5277.725
548.9  5291.2
548.8  5322.075
548.7  5349.5625
548.6  5391.9375
548.5  5407.025
548.4  5448.95
548.3  5472.6125
548.2  5496.475
548.1  5527.5
548  5575.025
547.9  5595.4625
547.8  5628.9125
547.7  5655.7875
547.6  5670.9875
547.5  5702.7875
547.4  5731.6625
547.3  5735.7
547.2  5749.2
547.1  5755.15
547  5789.45
546.9  5792.9125
546.8  5785.6875
546.7  5797.5125
546.6  5792.4125
546.5  5800.6125
546.4  5796.775
546.3  5777.3875
546.2  5757.7375
546.1  5735.275
546  5722.3375
545.9  5708.7
545.8  5652.775
545.7  5631.3
545.6  5611.825
545.5  5578.7875
545.4  5551.1625
545.3  5510.7875
545.2  5470.6625
545.1  5440.6125
545  5392.6125
544.9  5372.3
544.8  5312.675
544.7  5285.55
544.6  5256.3625
544.5  5221.3875
544.4  5195.7625
544.3  5128.5875
544.2  5112.85
544.1  5063.7
544  5044.45
543.9  5021.325
543.8  4972.3125
543.7  4947.25
543.6  4916.5125
543.5  4899.8
543.4  4850.525
543.3  4851.6625
543.2  4795.7375
543.1  4780.05
543  4767.3625
542.9  4744.2
542.8  4718.55
542.7  4697.8625
542.6  4667.1125
542.5  4658.225
542.4  4633.4
542.3  4631.2375
542.2  4593.65
542.1  4577.9625
542  4584.0625
541.9  4541.775
541.8  4531.875
541.7  4518.8875
541.6  4517.2375
541.5  4486.175
541.4  4476.7375
541.3  4466.9875
541.2  4449.675
541.1  4446.9875
541  4439.0125
540.9  4419.0375
540.8  4413.65
540.7  4400.9875
540.6  4394.2375
540.5  4374
540.4  4374.8125
540.3  4365.3125
540.2  4348.4625
540.1  4350.275
540  4345.85
539.9  4323.7625
539.8  4331.2625
539.7  4343.1
539.6  4313.6125
539.5  4306.5875
539.4  4326.25
539.3  4309.7
539.2  4299.8875
539.1  4291.975
539  4293.2
538.9  4275.7625
538.8  4285.2
538.7  4273.5625
538.6  4297.6375
538.5  4281.2875
538.4  4281.6375
538.3  4283.0125
538.2  4269.5625
538.1  4260.2375
538  4279.9
537.9  4264.275
537.8  4240.6625
537.7  4256.3125
537.6  4272.9125
537.5  4265.675
537.4  4265.425
537.3  4248.0875
537.2  4257.2
537.1  4256.9
537  4246.8
536.9  4259.15
536.8  4247.5625
536.7  4259.225
536.6  4249.9375
536.5  4254.05
536.4  4233.425
536.3  4255.875
536.2  4237.8625
536.1  4243
536  4235.5875
535.9  4241.4125
535.8  4248.2625
535.7  4240.8375
535.6  4232.4
535.5  4244.6875
535.4  4261.5375
535.3  4252.6875
535.2  4258.3375
535.1  4281.275
535  4276.8
534.9  4273.5875
534.8  4297.3625
534.7  4294.4
534.6  4325.8
534.5  4349.45
534.4  4341.65
534.3  4358.3875
534.2  4375.2
534.1  4393.65
534  4405.6375
533.9  4402.925
533.8  4408.65
533.7  4431.7125
533.6  4426.5875
533.5  4428.375
533.4  4412.05
533.3  4417.6
533.2  4403.1625
533.1  4401.575
533  4385.5375
532.9  4382.6
532.8  4348.875
532.7  4336.3375
532.6  4313.6625
532.5  4301.35
532.4  4275.225
532.3  4258.925
532.2  4265.275
532.1  4242.125
532  4219.4125
531.9  4212.225
531.8  4203.2625
531.7  4187.2375
531.6  4179.6
531.5  4182.4
531.4  4165.425
531.3  4170.825
531.2  4152.35
531.1  4147.875
531  4131.4125
530.9  4130.9625
530.8  4123.475
530.7  4119.0875
530.6  4075.9375
530.5  4090.15
530.4  4075
530.3  4073.7
530.2  4056.675
530.1  4052.3
530  4039.3625
529.9  4040.8875
529.8  4029.25
529.7  4016.7
529.6  3995.0875
529.5  4005.3375
529.4  4009.85
529.3  3994.775
529.2  3990.675
529.1  3977.675
529  3983.3125
528.9  3983.7
528.8  3972.1625
528.7  3976.3625
528.6  3971.6375
528.5  3970.7125
528.4  3970.3625
528.3  3960.8875
528.2  3955.275
528.1  3966.3625
528  3965.6375
527.9  3976.7
527.8  3969.1125
527.7  3959.925
527.6  3951.775
527.5  3958.975
527.4  3956.3625
527.3  3943.6125
527.2  3958.7375
527.1  3942.7875
527  3955.275
526.9  3955.8875
526.8  3959.5375
526.7  3938.3625
526.6  3943.975
526.5  3946.6625
526.4  3946.55
526.3  3951.175
526.2  3954.025
526.1  3951.575
526  3941.875
525.9  3941.6125
525.8  3936.575
525.7  3948.7625
525.6  3947.75
525.5  3955.375
525.4  3956.1125
525.3  3946.45
525.2  3951.8625
525.1  3936.025
525  3943.3125

# Region:            Ba 3d
# Acquisition Date:  05/24/21 02:13:30 UTC
# Analysis Method:   XPS
# Analyzer:          Phoibos 100 R6
# Analyzer Lens:     LargeArea:1.5kV
# Analyzer Slit:     1:0.2x20\B:open
# Scan Mode:         FixedAnalyzerTransmission
# Curves/Scan:       1
# Values/Curve:      81
# Dwell Time:        0.8
# Excitation Energy: 1486.61
# Binding Energy:    784
# Pass Energy:       30
# Bias Voltage:      90
# Detector Voltage:  2400
# Eff. Workfunction: 4.309
# Source:            X-Ray Dummy
# Comment:           
#
# Cycle: 0
# Number of Scans: 50
#
# Cycle: 0, Curve: 0
# Acquisition Date: 05/24/21 02:13:30 UTC
#
# ColumnLabels: energy counts/s
#
784  5278.225
783.9  5259.925
783.8  5250.85
783.7  5225.125
783.6  5240.925
783.5  5254.7
783.4  5237.875
783.3  5240.425
783.2  5245.7
783.1  5256.9
783  5254.5
782.9  5270.625
782.8  5258.525
782.7  5272.075
782.6  5275.2
782.5  5267.075
782.4  5280.95
782.3  5303.425
782.2  5316.3
782.1  5315.5
782  5313.75
781.9  5321.825
781.8  5355.3
781.7  5370.35
781.6  5375.775
781.5  5373.675
781.4  5392.125
781.3  5395.75
781.2  5402.8
781.1  5397.25
781  5407.875
780.9  5410.5
780.8  5380.325
780.7  5370.825
780.6  5363.425
780.5  5380.275
780.4  5354.7
780.3  5340.6
780.2  5302.5
780.1  5316.575
780  5304
779.9  5291.6
779.8  5263.4
779.7  5250.225
779.6  5262.475
779.5  5242.45
779.4  5234.125
779.3  5230.075
779.2  5243.275
779.1  5230.675
779  5221.325
778.9  5201.85
778.8  5223.825
778.7  5218.875
778.6  5216.075
778.5  5203.425
778.4  5211.3
778.3  5197.525
778.2  5201.9
778.1  5195.975
778  5175.275
777.9  5190.225
777.8  5202.7
777.7  5188.55
777.6  5195.225
777.5  5194.7
777.4  5196.975
777.3  5198.025
777.2  5201.675
777.1  5184.725
777  5172.325
776.9  5196.4
776.8  5187.325
776.7  5211.05
776.6  5178.9
776.5  5187.85
776.4  5181.875
776.3  5185.4
776.2  5160.525
776.1  5189.2
776  5199.5

# Region:            overview
# Acquisition Date:  05/23/21 18:21:48 UTC
# Analysis Method:   XPS
# Analyzer:          Phoibos 100 R6
# Analyzer Lens:     MediumArea:1.5kV
# Analyzer Slit:     1:0.2x20\B:open
# Scan Mode:         FixedAnalyzerTransmission
# Curves/Scan:       1
# Values/Curve:      1205
# Dwell Time:        0.2
# Excitation Energy: 1486.61
# Binding Energy:    1200
# Pass Energy:       50
# Bias Voltage:      90
# Detector Voltage:  2400
# Eff. Workfunction: 4.309
# Source:            X-Ray Dummy
# Comment:           
#
# Cycle: 0
# Number of Scans: 1
#
# Cycle: 0, Curve: 0
# Acquisition Date: 05/23/21 18:21:48 UTC
#
# ColumnLabels: energy counts/s
#
1200  7295
1199  7500
1198  7830
1197  7375
1196  7165
1195  7415
1194  7255
1193  7120
1192  6990
1191  7075
1190  6990
1189  6960
1188  7145
1187  6905
1186  7180
1185  7130
1184  6740
1183  6640
1182  6810
1181  7130
1180  6520
1179  6640
1178  6495
1177  6835
1176  6930
1175  6640
1174  6610
1173  6525
1172  6540
1171  6490
1170  6585
1169  6550
1168  6615
1167  6400
1166  6590
1165  6600
1164  6705
1163  6560
1162  6400
1161  6175
1160  6715
1159  6530
1158  6405
1157  6355
1156  6330
1155  6605
1154  6140
1153  6100
1152  6300
1151  6205
1150  5995
1149  6265
1148  6255
1147  6175
1146  6130
1145  6030
1144  6075
1143  5935
1142  5795
1141  6230
1140  5940
1139  5895
1138  5775
1137  5655
1136  6195
1135  6215
1134  5865
1133  5860
1132  5915
1131  5755
1130  5725
1129  5905
1128  5930
1127  5680
1126  5780
1125  5605
1124  5765
1123  5595
1122  5660
1121  5595
1120  5920
1119  5635
1118  5740
1117  5940
1116  5845
1115  5695
1114  5405
1113  5535
1112  6045
1111  5620
1110  5635
1109  5600
1108  5350
1107  5475
1106  5635
1105  5390
1104  5520
1103  5570
1102  5280
1101  5345
1100  5685
1099  5555
1098  5720
1097  5385
1096  5385
1095  5510
1094  5145
1093  5145
1092  5045
1091  5450
1090  5110
1089  5470
1088  5380
1087  5440
1086  5705
1085  5070
1084  5045
1083  5125
1082  5225
1081  5220
1080  4950
1079  5325
1078  5130
1077  5315
1076  5015
1075  4955
1074  4915
1073  4905
1072  5005
1071  5445
1070  5165
1069  5025
1068  4890
1067  4780
1066  5040
1065  4905
1064  4860
1063  4925
1062  5210
1061  5250
1060  4995
1059  4945
1058  4735
1057  5025
1056  4725
1055  4930
1054  4955
1053  4905
1052  4985
1051  4905
1050  4910
1049  4890
1048  4930
1047  4775
1046  4945
1045  4670
1044  5195
1043  4730
1042  5010
1041  4445
1040  4625
1039  4650
1038  4705
1037  4895
1036  4610
1035  5160
1034  4505
1033  4535
1032  4780
1031  5025
1030  4690
1029  4770
1028  4765
1027  4635
1026  4400
1025  4745
1024  4755
1023  4660
1022  4820
1021  4655
1020  4530
1019  4760
1018  4735
1017  4715
1016  4820
1015  4870
1014  4595
1013  4520
1012  4420
1011  4340
1010  4225
1009  4665
1008  4650
1007  4670
1006  4355
1005  4585
1004  4840
1003  4875
1002  4355
1001  4575
1000  4480
999  4565
998  4285
997  4340
996  4455
995  4515
994  4315
993  4750
992  4450
991  4430
990  4615
989  4565
988  4510
987  4765
986  4575
985  4545
984  4230
983  4600
982  4400
981  4375
980  4440
979  4390
978  4430
977  4675
976  4590
975  4445
974  4370
973  4085
972  4275
971  4345
970  4550
969  4540
968  4375
967  4705
966  4345
965  4535
964  4280
963  4135
962  4280
961  4230
960  4255
959  4540
958  4665
957  4125
956  4130
955  4315
954  4325
953  4365
952  4440
951  4350
950  4340
949  4550
948  4525
947  4390
946  4430
945  4305
944  4520
943  4415
942  4420
941  4540
940  4455
939  4400
938  4490
937  4500
936  4390
935  4475
934  4450
933  4310
932  4210
931  4280
930  4180
929  4460
928  4455
927  4180
926  4260
925  4365
924  4305
923  4460
922  4645
921  4110
920  3985
919  4295
918  3820
917  4395
916  4370
915  4180
914  4305
913  4265
912  4260
911  4405
910  4395
909  4145
908  4575
907  4280
906  4360
905  4390
904  4170
903  4285
902  4275
901  4185
900  4355
899  4480
898  4310
897  4115
896  4360
895  4300
894  4315
893  4145
892  4215
891  4475
890  4400
889  4045
888  4210
887  4475
886  4215
885  4240
884  4280
883  4230
882  4220
881  4275
880  4605
879  4270
878  4265
877  4400
876  4300
875  4080
874  4505
873  4225
872  4180
871  4235
870  4195
869  4355
868  4070
867  4115
866  4325
865  4195
864  4425
863  4435
862  4225
861  4405
860  4130
859  4435
858  4280
857  4280
856  4495
855  4430
854  4055
853  4200
852  4320
851  4080
850  4360
849  4430
848  4385
847  4370
846  4410
845  4275
844  4425
843  4265
842  4190
841  4100
840  4255
839  4275
838  4645
837  4340
836  4650
835  4255
834  4605
833  4385
832  4475
831  4205
830  4510
829  4245
828  4715
827  4080
826  4100
825  4480
824  4355
823  4345
822  4465
821  4600
820  4360
819  4470
818  4575
817  4205
816  4410
815  4130
814  4560
813  4360
812  4225
811  4480
810  4120
809  4845
808  4250
807  4465
806  4070
805  4485
804  4300
803  4535
802  4480
801  4405
800  4495
799  4365
798  4490
797  4475
796  4760
795  4705
794  4470
793  4445
792  4620
791  4230
790  4430
789  4935
788  4630
787  4770
786  4680
785  4650
784  4455
783  4605
782  4580
781  4395
780  4420
779  4575
778  4440
777  4860
776  4575
775  4695
774  4335
773  4605
772  4555
771  4560
770  4525
769  4840
768  4545
767  4710
766  4520
765  4700
764  5095
763  4700
762  4870
761  4885
760  4500
759  4720
758  4540
757  4515
756  4470
755  4430
754  4600
753  4345
752  4545
751  4355
750  4360
749  4600
748  4470
747  4350
746  4630
745  4545
744  4255
743  4260
742  4555
741  4495
740  4400
739  4360
738  4560
737  4310
736  4345
735  4600
734  4585
733  4330
732  4330
731  4415
730  4230
729  4545
728  4430
727  4400
726  4550
725  4435
724  4395
723  4550
722  4610
721  4465
720  4620
719  4470
718  4505
717  4335
716  4705
715  4410
714  4670
713  4615
712  4585
711  4400
710  4470
709  4650
708  4495
707  4665
706  4685
705  4605
704  4300
703  4590
702  4475
701  4490
700  4475
699  4790
698  4455
697  4445
696  5065
695  4655
694  4640
693  4120
692  4795
691  4460
690  4495
689  4730
688  4605
687  4675
686  4680
685  4580
684  4455
683  4560
682  4670
681  4775
680  4705
679  4870
678  4535
677  4795
676  4705
675  4770
674  4815
673  4530
672  4780
671  4725
670  4885
669  4760
668  4735
667  4875
666  4730
665  4810
664  4710
663  4585
662  5125
661  4895
660  4845
659  4720
658  4795
657  4815
656  5000
655  4610
654  4830
653  5005
652  4855
651  4680
650  4870
649  4915
648  4960
647  4615
646  4945
645  5135
644  4825
643  5475
642  5050
641  5325
640  5265
639  5270
638  5130
637  4870
636  4900
635  4850
634  4940
633  4695
632  4835
631  4995
630  4970
629  4475
628  4640
627  4860
626  4965
625  4730
624  4720
623  4945
622  4740
621  4620
620  4960
619  4625
618  4565
617  4810
616  4805
615  5130
614  4825
613  4870
612  4905
611  4775
610  4955
609  4785
608  5125
607  4955
606  5155
605  4790
604  4780
603  5005
602  4810
601  4895
600  4920
599  4960
598  5140
597  4805
596  4845
595  4760
594  5115
593  5155
592  4835
591  4960
590  5140
589  5020
588  4710
587  5075
586  5160
585  5320
584  5065
583  5420
582  5280
581  5235
580  5305
579  5375
578  5090
577  5315
576  5360
575  4835
574  5100
573  5230
572  5230
571  5385
570  5155
569  5465
568  5320
567  5165
566  5355
565  5450
564  5015
563  5365
562  5305
561  5020
560  5210
559  5180
558  5195
557  5145
556  5270
555  5385
554  5310
553  5655
552  5550
551  5800
550  5810
549  5825
548  6720
547  7130
546  6915
545  6735
544  5995
543  5520
542  5585
541  5390
540  5235
539  5130
538  5015
537  4920
536  5125
535  4710
534  5515
533  4970
532  5015
531  4930
530  5125
529  4885
528  4665
527  4835
526  4685
525  4540
524  4720
523  4860
522  4695
521  4725
520  5065
519  4655
518  4720
517  4735
516  4725
515  4660
514  4610
513  5025
512  5010
511  4785
510  4790
509  4985
508  4735
507  4810
506  4620
505  4735
504  4775
503  5035
502  4800
501  5020
500  4965
499  4690
498  4545
497  4630
496  5010
495  4725
494  4865
493  4970
492  4750
491  4915
490  4805
489  5055
488  4830
487  4930
486  5050
485  5075
484  4945
483  4985
482  5045
481  5065
480  5180
479  5185
478  5000
477  4850
476  5065
475  4920
474  4880
473  5000
472  5365
471  5325
470  4950
469  5090
468  4850
467  5090
466  5020
465  5365
464  4935
463  5355
462  4965
461  5135
460  5150
459  5375
458  5045
457  5460
456  5330
455  5295
454  5330
453  5585
452  5590
451  5440
450  5090
449  5180
448  5255
447  5215
446  5460
445  5450
444  5195
443  5345
442  5430
441  5160
440  5290
439  5415
438  5625
437  5515
436  5325
435  5630
434  5450
433  5215
432  5265
431  5580
430  5305
429  5620
428  5620
427  5520
426  5385
425  5510
424  5630
423  5235
422  5145
421  5470
420  5630
419  5490
418  5665
417  5725
416  5735
415  5580
414  5640
413  5745
412  5835
411  5565
410  5975
409  5710
408  5540
407  5485
406  5770
405  5875
404  5710
403  5915
402  6165
401  5835
400  6080
399  5965
398  5835
397  5995
396  5845
395  5740
394  6100
393  5895
392  6000
391  6360
390  6105
389  5955
388  5755
387  6215
386  6095
385  6440
384  6100
383  6335
382  6155
381  6400
380  6210
379  5970
378  6450
377  6335
376  6220
375  6435
374  6340
373  6065
372  6550
371  6380
370  6475
369  6765
368  6235
367  6440
366  6345
365  6425
364  6590
363  6575
362  6730
361  6635
360  6720
359  7160
358  7140
357  7270
356  7780
355  8600
354  9125
353  9435
352  8745
351  7650
350  7165
349  6540
348  6680
347  6160
346  6250
345  5930
344  5770
343  5840
342  6015
341  6525
340  6645
339  7080
338  7660
337  8825
336  10010
335  9875
334  9335
333  7325
332  6300
331  5435
330  4930
329  4615
328  4655
327  4600
326  4670
325  4565
324  4350
323  4325
322  4210
321  3860
320  3820
319  3630
318  3965
317  3920
316  3725
315  3705
314  3670
313  3825
312  3570
311  3695
310  3720
309  3575
308  3810
307  3620
306  3640
305  3595
304  3760
303  3500
302  3450
301  3770
300  3350
299  3560
298  3715
297  3575
296  3535
295  3635
294  3670
293  3680
292  3455
291  3620
290  3330
289  3505
288  4040
287  3835
286  4350
285  4230
284  3670
283  3790
282  3875
281  3565
280  3635
279  3555
278  3610
277  3580
276  3555
275  3635
274  3275
273  3575
272  3600
271  3660
270  3475
269  3545
268  3580
267  3495
266  3685
265  3560
264  3870
263  3690
262  3785
261  3555
260  3335
259  3685
258  3435
257  3540
256  3635
255  3575
254  3390
253  3485
252  3465
251  3800
250  3370
249  3540
248  3600
247  3685
246  3460
245  3700
244  3445
243  3800
242  3615
241  3470
240  3550
239  3615
238  3865
237  3625
236  3580
235  3695
234  3750
233  3775
232  3770
231  3685
230  3590
229  3805
228  3600
227  3865
226  3735
225  3875
224  3615
223  3735
222  3545
221  3590
220  3585
219  3600
218  3815
217  3405
216  3610
215  3640
214  3735
213  3725
212  3735
211  3825
210  3870
209  3750
208  3525
207  3725
206  4000
205  3730
204  3675
203  3780
202  3645
201  3735
200  3860
199  3840
198  3810
197  3855
196  3700
195  3850
194  4005
193  3850
192  3820
191  3875
190  3765
189  3775
188  3620
187  4030
186  3805
185  4055
184  3980
183  3835
182  3870
181  4295
180  4030
179  4030
178  3975
177  3870
176  4095
175  3880
174  3830
173  3855
172  3965
171  3970
170  4080
169  4080
168  4090
167  3950
166  3980
165  4040
164  4195
163  3895
162  3975
161  4205
160  4305
159  3985
158  4105
157  4125
156  4200
155  4115
154  4420
153  4365
152  4435
151  4110
150  4130
149  4250
148  4355
147  4185
146  4115
145  4315
144  4250
143  4245
142  4390
141  4250
140  4380
139  4445
138  4405
137  4535
136  4510
135  4365
134  4355
133  4305
132  4315
131  4485
130  4470
129  4300
128  4230
127  4400
126  4585
125  4605
124  4810
123  4785
122  4650
121  4585
120  4865
119  5335
118  4540
117  4930
116  4830
115  4930
114  5295
113  4905
112  5110
111  4880
110  5210
109  5065
108  4715
107  4665
106  4675
105  4745
104  4750
103  4840
102  4895
101  4785
100  4665
99  4565
98  4600
97  4420
96  4510
95  4310
94  4575
93  4470
92  4615
91  4815
90  5865
89  10290
88  15585
87  11065
86  7715
85  14035
84  17095
83  8730
82  3740
81  2905
80  2650
79  3370
78  3430
77  2940
76  3020
75  3435
74  3475
73  2815
72  2730
71  2335
70  2020
69  1965
68  2150
67  2105
66  1970
65  2240
64  2085
63  2060
62  2155
61  2225
60  2245
59  2265
58  2340
57  2430
56  2265
55  2115
54  2240
53  1740
52  1995
51  1765
50  1760
49  1895
48  1810
47  1740
46  1675
45  1870
44  1610
43  1875
42  1925
41  1680
40  1745
39  1770
38  1580
37  1525
36  1730
35  1715
34  1665
33  1810
32  1550
31  1680
30  1805
29  1640
28  1815
27  1660
26  1690
25  1685
24  1965
23  1790
22  1680
21  1630
20  1780
19  1935
18  1725
17  1770
16  1815
15  1630
14  1755
13  2020
12  1620
11  1530
10  1825
9  1710
8  2165
7  2495
6  2590
5  2645
4  2885
3  2665
2  2085
1  1675
-2.2737368e-013  1460
-1  1405
-2  1205
-3  1480
-4  1360

# Region:            Cl 2p
# Acquisition Date:  05/23/21 23:48:55 UTC
# Analysis Method:   XPS
# Analyzer:          Phoibos 100 R6
# Analyzer Lens:     LargeArea:1.5kV
# Analyzer Slit:     1:0.2x20\B:open
# Scan Mode:         FixedAnalyzerTransmission
# Curves/Scan:       1
# Values/Curve:      91
# Dwell Time:        0.8
# Excitation Energy: 1486.61
# Binding Energy:    204
# Pass Energy:       30
# Bias Voltage:      90
# Detector Voltage:  2400
# Eff. Workfunction: 4.309
# Source:            X-Ray Dummy
# Comment:           
#
# Cycle: 0
# Number of Scans: 30
#
# Cycle: 0, Curve: 0
# Acquisition Date: 05/23/21 23:48:55 UTC
#
# ColumnLabels: energy counts/s
#
204  2421.1667
203.9  2428.2917
203.8  2423.0417
203.7  2448.0833
203.6  2422.4583
203.5  2434.3333
203.4  2442.625
203.3  2426.625
203.2  2423.625
203.1  2450
203  2428.625
202.9  2436.5
202.8  2430.5417
202.7  2436
202.6  2437.8333
202.5  2437.5417
202.4  2431.75
202.3  2433.8333
202.2  2429.5833
202.1  2457.2917
202  2445.8333
201.9  2455.5833
201.8  2447.75
201.7  2462.0833
201.6  2441.9167
201.5  2445.875
201.4  2463.875
201.3  2446.1667
201.2  2457.7083
201.1  2453.9167
201  2430.5417
200.9  2435.7917
200.8  2449.25
200.7  2450.5833
200.6  2461.1667
200.5  2457
200.4  2451.625
200.3  2443.0833
200.2  2469.6667
200.1  2455.1667
200  2437.6667
199.9  2439.0833
199.8  2459.4167
199.7  2453.4583
199.6  2463.4583
199.5  2445
199.4  2461.5833
199.3  2444.5
199.2  2431.4583
199.1  2457.9583
199  2453.125
198.9  2442.2917
198.8  2456.25
198.7  2481.6667
198.6  2458.9167
198.5  2463.375
198.4  2457.125
198.3  2460.9167
198.2  2474.1667
198.1  2469.2917
198  2446.3333
197.9  2462.4167
197.8  2451.125
197.7  2450.625
197.6  2459
197.5  2456.2083
197.4  2466.25
197.3  2460.7917
197.2  2460.4167
197.1  2441.1667
197  2460.7917
196.9  2450.2917
196.8  2462.9167
196.7  2448.9583
196.6  2457.8333
196.5  2463.75
196.4  2463.75
196.3  2473
196.2  2462.25
196.1  2473.5
196  2467.5833
195.9  2456.3333
195.8  2453
195.7  2466.875
195.6  2456.25
195.5  2453.6667
195.4  2437.5417
195.3  2459.2083
195.2  2472.2917
195.1  2462.0417
195  2462.5833

# Region:            Au 4f
# Acquisition Date:  05/23/21 20:18:28 UTC
# Analysis Method:   XPS
# Analyzer:          Phoibos 100 R6
# Analyzer Lens:     LargeArea:1.5kV
# Analyzer Slit:     1:0.2x20\B:open
# Scan Mode:         FixedAnalyzerTransmission
# Curves/Scan:       1
# Values/Curve:      151
# Dwell Time:        0.8
# Excitation Energy: 1486.61
# Binding Energy:    95
# Pass Energy:       30
# Bias Voltage:      90
# Detector Voltage:  2400
# Eff. Workfunction: 4.309
# Source:            X-Ray Dummy
# Comment:           
#
# Cycle: 0
# Number of Scans: 10
#
# Cycle: 0, Curve: 0
# Acquisition Date: 05/23/21 20:18:28 UTC
#
# ColumnLabels: energy counts/s
#
95  2729.5
94.9  2740
94.8  2726.125
94.7  2728.75
94.6  2748
94.5  2764.25
94.4  2788.625
94.3  2757.125
94.2  2769.625
94.1  2762
94  2769.875
93.9  2729.875
93.8  2762.5
93.7  2776.25
93.6  2757.25
93.5  2746.25
93.4  2771.625
93.3  2747.5
93.2  2763.875
93.1  2726.75
93  2772.5
92.9  2758
92.8  2756.5
92.7  2732.75
92.6  2794.125
92.5  2766.375
92.4  2800.125
92.3  2782.75
92.2  2808.5
92.1  2796.375
92  2847.5
91.9  2819.75
91.8  2875.75
91.7  2923
91.6  2890.125
91.5  2922.5
91.4  2961.875
91.3  2959
91.2  2959
91.1  3015.375
91  3005.875
90.9  3034.625
90.8  3082.5
90.7  3055.5
90.6  3138.125
90.5  3164.5
90.4  3187.5
90.3  3182.875
90.2  3256.25
90.1  3329.25
90  3371.25
89.9  3481.875
89.8  3590.125
89.7  3787.375
89.6  3886.875
89.5  4120.5
89.4  4349.625
89.3  4633.875
89.2  4981.25
89.1  5335.75
89  5816.875
88.9  6351
88.8  6838.625
88.7  7381.375
88.6  8033.125
88.5  8598.375
88.4  9136
88.3  9784.375
88.2  10184.125
88.1  10463.125
88  10610.375
87.9  10735.625
87.8  10552
87.7  10339.875
87.6  9870.375
87.5  9352.875
87.4  8651.5
87.3  8077
87.2  7422.375
87.1  6716.125
87  6113.125
86.9  5614.875
86.8  5056.125
86.7  4716.125
86.6  4413.875
86.5  4193.625
86.4  4073.125
86.3  3973.625
86.2  3942.125
86.1  4024
86  4082.375
85.9  4208.875
85.8  4413
85.7  4724.75
85.6  5040.25
85.5  5414.5
85.4  5905.125
85.3  6437.375
85.2  7071.25
85.1  7752.125
85  8471.25
84.9  9274.125
84.8  9983
84.7  10731.75
84.6  11316.875
84.5  11852.75
84.4  12176.625
84.3  12339
84.2  12282.75
84.1  12016.25
84  11596.25
83.9  11002.5
83.8  10235.125
83.7  9426.25
83.6  8434.25
83.5  7535
83.4  6683.125
83.3  5926.875
83.2  5190.5
83.1  4564.25
83  4006.5
82.9  3591.25
82.8  3282.375
82.7  2977.25
82.6  2799.875
82.5  2610.5
82.4  2495.375
82.3  2412.625
82.2  2267.125
82.1  2208.125
82  2101.875
81.9  2079.625
81.8  2037.875
81.7  1984.625
81.6  1932.5
81.5  1918.5
81.4  1868.625
81.3  1883.5
81.2  1842
81.1  1787
81  1788.125
80.9  1788.875
80.8  1753.625
80.7  1767.25
80.6  1754
80.5  1742
80.4  1740.25
80.3  1712.5
80.2  1686.875
80.1  1712.25
80  1715.875

