# Created by:        SpecsLab Prodigy, Version 4.60.2-r85849 
#
# XY-Serializer Export Settings:
#   Comment Prefix:           #
#   Output meta data:         yes
#   Energy Axis:              Binding Energy
#   Count Rate:               Counts per Second
#   Separate Scan Data:       no
#   Separate Channel Data:    no
#   External Channel Data:    yes
#   Transmission Function:    no
#   ErrorBar:                 no
#   Operation Results:        yes
#   Time Zone Format:         UTC
#
# Group:             Spectrum Group
#
# Region:            C1s
# Acquisition Date:  12/16/21 15:04:09 UTC
# Analysis Method:   XPS
# Analyzer:          Phoibos 100 R6
# Analyzer Lens:     LargeArea:1.5kV
# Analyzer Slit:     1:0.2x20\B:open
# Scan Mode:         FixedAnalyzerTransmission
# Curves/Scan:       1
# Values/Curve:      131
# Dwell Time:        0.8
# Excitation Energy: 1486.61
# Binding Energy:    295
# Pass Energy:       30
# Bias Voltage:      90
# Detector Voltage:  2600
# Eff. Workfunction: 4.309
# Source:            X-Ray Dummy
# Comment:           
#
# Cycle: 0
# Number of Scans: 6
#
# Cycle: 0, Curve: 0
# Acquisition Date: 12/16/21 15:04:09 UTC
#
# ColumnLabels: energy counts/s
#
295  981.45833
294.9  961.25
294.8  962.91667
294.7  996.04167
294.6  982.29167
294.5  964.375
294.4  983.125
294.3  973.95833
294.2  994.375
294.1  989.79167
294  1213.9583
293.9  1002.5
293.8  967.5
293.7  1010.2083
293.6  994.79167
293.5  981.45833
293.4  981.66667
293.3  980.625
293.2  986.45833
293.1  967.29167
293  996.04167
292.9  978.125
292.8  986.25
292.7  988.33333
292.6  1016.6667
292.5  1018.5417
292.4  988.125
292.3  984.375
292.2  1000.2083
292.1  1017.2917
292  1003.5417
291.9  992.29167
291.8  1004.7917
291.7  999.79167
291.6  1019.7917
291.5  1030.625
291.4  1008.5417
291.3  1021.4583
291.2  1012.0833
291.1  1011.4583
291  996.66667
290.9  1016.6667
290.8  1014.375
290.7  1024.1667
290.6  1029.375
290.5  1068.9583
290.4  1038.125
290.3  1043.75
290.2  1038.75
290.1  1078.5417
290  1063.75
289.9  1078.9583
289.8  1113.3333
289.7  1116.0417
289.6  1128.9583
289.5  1171.6667
289.4  1189.7917
289.3  1245.8333
289.2  1279.5833
289.1  1337.7083
289  1354.5833
288.9  1441.875
288.8  1483.75
288.7  1583.125
288.6  1621.25
288.5  1752.7083
288.4  1765.4167
288.3  1928.125
288.2  1977.5
288.1  2058.5417
288  2173.125
287.9  2259.1667
287.8  2313.125
287.7  2406.4583
287.6  2477.0833
287.5  2528.9583
287.4  2547.2917
287.3  2603.9583
287.2  2607.5
287.1  2644.7917
287  2657.2917
286.9  2690.2083
286.8  2730.625
286.7  2696.25
286.6  2667.2917
286.5  2705.625
286.4  2669.375
286.3  2614.5833
286.2  2620.625
286.1  2559.5833
286  2533.3333
285.9  2422.5
285.8  2297.0833
285.7  2263.125
285.6  2128.3333
285.5  1988.9583
285.4  1905
285.3  1737.2917
285.2  1678.9583
285.1  1529.5833
285  1460
284.9  1360.4167
284.8  1255.4167
284.7  1197.9167
284.6  1127.7083
284.5  1056.875
284.4  1031.6667
284.3  1000.4167
284.2  962.08333
284.1  944.79167
284  931.45833
283.9  937.91667
283.8  915
283.7  887.70833
283.6  898.125
283.5  869.16667
283.4  880.41667
283.3  894.375
283.2  857.08333
283.1  883.125
283  853.54167
282.9  843.95833
282.8  867.29167
282.7  854.58333
282.6  835.41667
282.5  858.54167
282.4  835
282.3  870.83333
282.2  841.875
282.1  845.625
282  847.70833

# Region:            N1s
# Acquisition Date:  12/16/21 15:14:57 UTC
# Analysis Method:   XPS
# Analyzer:          Phoibos 100 R6
# Analyzer Lens:     LargeArea:1.5kV
# Analyzer Slit:     1:0.2x20\B:open
# Scan Mode:         FixedAnalyzerTransmission
# Curves/Scan:       1
# Values/Curve:      131
# Dwell Time:        0.8
# Excitation Energy: 1486.61
# Binding Energy:    408
# Pass Energy:       30
# Bias Voltage:      90
# Detector Voltage:  2600
# Eff. Workfunction: 4.309
# Source:            X-Ray Dummy
# Comment:           
#
# Cycle: 0
# Number of Scans: 10
#
# Cycle: 0, Curve: 0
# Acquisition Date: 12/16/21 15:14:57 UTC
#
# ColumnLabels: energy counts/s
#
408  1103
407.9  1126.5
407.8  1110.125
407.7  1115.875
407.6  1101.75
407.5  1110.625
407.4  1103.625
407.3  1109
407.2  1115.875
407.1  1096.625
407  1116.875
406.9  1135.75
406.8  1113.375
406.7  1121.5
406.6  1126.125
406.5  1136
406.4  1127.625
406.3  1132.25
406.2  1130.5
406.1  1114.5
406  1098.875
405.9  1117.75
405.8  1102.75
405.7  1116.875
405.6  1139.75
405.5  1131.125
405.4  1121.5
405.3  1120.875
405.2  1111.25
405.1  1124.5
405  1105.875
404.9  1146.75
404.8  1127.625
404.7  1114.625
404.6  1135.5
404.5  1105.875
404.4  1122.25
404.3  1127.125
404.2  1131
404.1  1165.75
404  1152.75
403.9  1143.5
403.8  1136.75
403.7  1160.875
403.6  1147.5
403.5  1154.125
403.4  1143.125
403.3  1173.75
403.2  1157.875
403.1  1194.375
403  1196.875
402.9  1213.25
402.8  1236.25
402.7  1248.375
402.6  1244.125
402.5  1265.875
402.4  1294.875
402.3  1273.375
402.2  1279.625
402.1  1319.25
402  1335.5
401.9  1315.875
401.8  1341.625
401.7  1338.75
401.6  1367.875
401.5  1372.5
401.4  1356.125
401.3  1380.875
401.2  1341.5
401.1  1367.5
401  1393.625
400.9  1384.875
400.8  1381.625
400.7  1364.375
400.6  1367.375
400.5  1377.25
400.4  1369.25
400.3  1372.75
400.2  1363.875
400.1  1327.5
400  1387.875
399.9  1321.25
399.8  1303.75
399.7  1292.625
399.6  1262.25
399.5  1235.25
399.4  1229.75
399.3  1230.375
399.2  1189.625
399.1  1170.375
399  1162.625
398.9  1137.125
398.8  1114.25
398.7  1122.375
398.6  1116.375
398.5  1113.375
398.4  1110.25
398.3  1117.875
398.2  1079.75
398.1  1084.75
398  1078.875
397.9  1090
397.8  1075.75
397.7  1076.375
397.6  1073.625
397.5  1070.375
397.4  1046.625
397.3  1073.375
397.2  1076.375
397.1  1080.5
397  1067
396.9  1103.875
396.8  1067.75
396.7  1078.5
396.6  1068
396.5  1089.75
396.4  1072.375
396.3  1053.75
396.2  1095.875
396.1  1065.5
396  1067.125
395.9  1090.125
395.8  1061.75
395.7  1058
395.6  1082.5
395.5  1082.125
395.4  1066.25
395.3  1066.625
395.2  1068.375
395.1  1076.625
395  1078.5

# Region:            overview
# Acquisition Date:  12/16/21 14:33:57 UTC
# Analysis Method:   XPS
# Analyzer:          Phoibos 100 R6
# Analyzer Lens:     LargeArea:1.5kV
# Analyzer Slit:     1:0.2x20\B:open
# Scan Mode:         FixedAnalyzerTransmission
# Curves/Scan:       1
# Values/Curve:      1205
# Dwell Time:        0.2
# Excitation Energy: 1486.61
# Binding Energy:    1200
# Pass Energy:       50
# Bias Voltage:      90
# Detector Voltage:  2600
# Eff. Workfunction: 4.309
# Source:            X-Ray Dummy
# Comment:           
#
# Cycle: 0
# Number of Scans: 1
#
# Cycle: 0, Curve: 0
# Acquisition Date: 12/16/21 14:33:57 UTC
#
# ColumnLabels: energy counts/s
#
1200  7230
1199  7490
1198  7245
1197  7360
1196  7330
1195  7545
1194  7630
1193  7275
1192  7425
1191  7130
1190  7655
1189  7910
1188  7345
1187  7705
1186  7570
1185  7885
1184  7125
1183  7340
1182  7560
1181  7055
1180  7650
1179  7650
1178  7825
1177  7570
1176  7485
1175  7620
1174  7410
1173  6980
1172  7345
1171  7395
1170  7335
1169  7445
1168  8010
1167  7785
1166  7460
1165  7720
1164  7335
1163  7335
1162  6955
1161  7570
1160  7030
1159  7155
1158  7315
1157  7505
1156  7415
1155  6990
1154  7725
1153  7350
1152  7490
1151  7570
1150  7505
1149  7805
1148  7495
1147  7150
1146  7235
1145  7320
1144  7025
1143  7350
1142  7365
1141  6995
1140  7220
1139  7820
1138  7745
1137  7560
1136  7980
1135  7530
1134  7245
1133  7605
1132  7135
1131  7560
1130  7315
1129  7660
1128  7325
1127  7445
1126  7555
1125  7780
1124  7510
1123  7420
1122  7190
1121  7415
1120  7455
1119  7490
1118  7510
1117  7685
1116  7665
1115  7475
1114  7390
1113  7535
1112  7550
1111  7195
1110  7530
1109  7265
1108  7490
1107  7695
1106  7125
1105  7510
1104  7600
1103  7460
1102  7330
1101  7515
1100  7650
1099  7155
1098  7305
1097  7165
1096  7210
1095  7710
1094  7215
1093  7630
1092  7325
1091  7450
1090  7040
1089  7310
1088  7300
1087  7390
1086  7290
1085  7485
1084  7155
1083  7440
1082  7530
1081  7135
1080  7685
1079  7410
1078  7525
1077  7400
1076  7420
1075  7535
1074  7470
1073  7250
1072  6885
1071  7320
1070  7300
1069  7565
1068  7385
1067  7525
1066  7380
1065  7685
1064  7270
1063  7255
1062  7010
1061  6950
1060  7260
1059  7515
1058  7540
1057  7190
1056  7135
1055  7535
1054  7650
1053  7615
1052  7775
1051  7545
1050  6960
1049  7130
1048  7310
1047  7465
1046  7325
1045  7515
1044  7210
1043  7460
1042  7385
1041  7315
1040  7485
1039  7725
1038  7595
1037  7210
1036  7535
1035  7380
1034  7365
1033  7195
1032  7255
1031  7200
1030  7435
1029  7525
1028  7385
1027  7595
1026  7250
1025  7485
1024  7495
1023  7705
1022  7320
1021  7585
1020  7560
1019  7670
1018  7385
1017  7760
1016  7300
1015  7185
1014  7165
1013  7365
1012  7465
1011  7635
1010  7570
1009  7490
1008  7370
1007  7225
1006  7250
1005  7635
1004  7755
1003  7840
1002  7590
1001  7655
1000  7275
999  7675
998  7680
997  7655
996  7345
995  7265
994  7245
993  6965
992  6940
991  7265
990  7320
989  7015
988  7030
987  7135
986  7355
985  7665
984  7645
983  7920
982  8050
981  8000
980  7790
979  8090
978  7480
977  7230
976  7035
975  6875
974  6685
973  6425
972  6375
971  6160
970  6305
969  6135
968  6400
967  6480
966  5935
965  5985
964  5885
963  5970
962  6005
961  5755
960  5905
959  5810
958  5570
957  5895
956  5750
955  6390
954  5670
953  5455
952  5865
951  6025
950  6170
949  6040
948  5835
947  5630
946  5880
945  5900
944  5870
943  5910
942  5915
941  5955
940  5830
939  5785
938  6105
937  6165
936  5935
935  5815
934  5955
933  5960
932  5785
931  5700
930  5765
929  5710
928  5870
927  5920
926  5970
925  5870
924  6105
923  5820
922  5960
921  5925
920  5935
919  5700
918  5735
917  5910
916  5665
915  5780
914  5860
913  6240
912  5545
911  5935
910  5720
909  5740
908  6045
907  5985
906  5800
905  6165
904  6055
903  5915
902  5905
901  5610
900  5720
899  5915
898  5715
897  6115
896  6005
895  5920
894  6035
893  5955
892  5895
891  5935
890  5925
889  5735
888  5340
887  6370
886  6160
885  6175
884  5805
883  5880
882  5975
881  5765
880  6085
879  5945
878  6095
877  5835
876  6005
875  5990
874  6120
873  5900
872  6010
871  5995
870  5995
869  6140
868  5975
867  5965
866  5760
865  5885
864  6010
863  6060
862  5765
861  5990
860  5695
859  5880
858  5925
857  5935
856  6145
855  5970
854  5675
853  5855
852  6000
851  5865
850  6050
849  5960
848  5620
847  5950
846  5925
845  5925
844  5935
843  5900
842  6100
841  6355
840  5720
839  5705
838  5930
837  6035
836  5950
835  6130
834  5975
833  5755
832  5940
831  6255
830  5850
829  6005
828  5825
827  6080
826  6100
825  5775
824  6065
823  6060
822  6100
821  5940
820  6090
819  6145
818  5715
817  6155
816  5645
815  6055
814  5760
813  6220
812  5930
811  6040
810  5755
809  6005
808  6030
807  6000
806  6170
805  6000
804  5615
803  5850
802  6135
801  6030
800  5815
799  6055
798  6155
797  5970
796  6050
795  6360
794  5690
793  6020
792  5835
791  5970
790  5710
789  5850
788  5640
787  5950
786  6170
785  5635
784  6180
783  6400
782  5925
781  5880
780  5770
779  5855
778  6010
777  6415
776  6220
775  5955
774  5800
773  5915
772  5905
771  5670
770  5820
769  6115
768  5825
767  5895
766  5885
765  5640
764  6100
763  5970
762  6075
761  5860
760  6315
759  6060
758  6160
757  5700
756  5795
755  6050
754  5960
753  5755
752  5785
751  5910
750  6080
749  6230
748  6070
747  6100
746  6005
745  6175
744  5840
743  6090
742  5815
741  6265
740  5930
739  6030
738  5855
737  6035
736  6410
735  5895
734  5995
733  5960
732  6000
731  6135
730  6135
729  6380
728  5865
727  6100
726  6005
725  6115
724  6135
723  6065
722  5945
721  6150
720  6035
719  6125
718  6100
717  6295
716  6085
715  6130
714  6130
713  6080
712  6115
711  6040
710  6070
709  5915
708  6120
707  5805
706  6240
705  6125
704  6115
703  6190
702  6185
701  6205
700  6065
699  6595
698  6360
697  5900
696  5880
695  6155
694  6185
693  6275
692  6060
691  6320
690  6165
689  5840
688  5960
687  5925
686  6200
685  5865
684  5905
683  5925
682  6095
681  5765
680  6225
679  6490
678  6020
677  5995
676  6230
675  6130
674  6130
673  6285
672  5870
671  6225
670  6160
669  5865
668  6105
667  5945
666  6165
665  6435
664  6270
663  6085
662  6195
661  6145
660  6000
659  5960
658  5990
657  6060
656  6275
655  6125
654  5975
653  6210
652  6215
651  5980
650  5865
649  6290
648  6170
647  6335
646  6010
645  5980
644  6245
643  6050
642  6380
641  6145
640  6235
639  6100
638  6210
637  6200
636  6000
635  6200
634  6335
633  5970
632  6400
631  6125
630  6330
629  6145
628  5890
627  6205
626  6285
625  6150
624  6110
623  6145
622  6485
621  6190
620  6070
619  6105
618  6165
617  5970
616  5835
615  6445
614  6335
613  5975
612  6360
611  6340
610  5930
609  5960
608  6095
607  6240
606  6090
605  6390
604  6075
603  6280
602  5905
601  6140
600  5960
599  6205
598  5930
597  6265
596  5925
595  6140
594  6390
593  5970
592  6135
591  6265
590  6035
589  6080
588  6255
587  5930
586  6115
585  5890
584  6285
583  6035
582  6450
581  6220
580  5805
579  6665
578  6105
577  6220
576  6035
575  6065
574  6010
573  5830
572  6120
571  6220
570  5735
569  6075
568  6145
567  5885
566  6280
565  6315
564  5890
563  6080
562  6405
561  6140
560  6620
559  6560
558  6345
557  6460
556  6405
555  6325
554  6305
553  6095
552  5685
551  5845
550  5530
549  5435
548  5105
547  5345
546  5220
545  5010
544  4915
543  4920
542  4570
541  4440
540  4680
539  4785
538  4805
537  6385
536  9020
535  13120
534  13530
533  9050
532  5845
531  4770
530  4765
529  4305
528  4300
527  4160
526  4430
525  4610
524  4655
523  4565
522  4380
521  4000
520  3915
519  3690
518  3995
517  3935
516  4145
515  4090
514  3895
513  3950
512  3625
511  4135
510  4025
509  3865
508  3870
507  3745
506  3945
505  3590
504  3690
503  4040
502  3725
501  3785
500  4040
499  3810
498  3755
497  3655
496  3810
495  3695
494  4010
493  3945
492  4000
491  3920
490  3870
489  3760
488  3780
487  3980
486  3880
485  3760
484  3885
483  3915
482  3965
481  3705
480  4050
479  4025
478  4045
477  3655
476  3590
475  3595
474  3710
473  3790
472  3670
471  3450
470  3735
469  4025
468  3865
467  3695
466  3670
465  3975
464  3975
463  3710
462  3620
461  3980
460  3680
459  3705
458  3715
457  3570
456  3760
455  3415
454  3455
453  3490
452  3635
451  3690
450  3610
449  3600
448  3665
447  3525
446  3630
445  3515
444  3755
443  3650
442  3415
441  3680
440  3655
439  3655
438  3650
437  3730
436  3700
435  3395
434  3700
433  3575
432  3650
431  3575
430  3540
429  3470
428  3665
427  3770
426  3670
425  3380
424  3715
423  3740
422  3655
421  3560
420  3705
419  3550
418  3470
417  3760
416  3565
415  3605
414  3515
413  3695
412  3340
411  3570
410  3500
409  3545
408  3435
407  3500
406  3490
405  3600
404  3920
403  4005
402  4290
401  4175
400  4000
399  3805
398  3475
397  3450
396  3485
395  3345
394  3490
393  3210
392  3270
391  3405
390  3590
389  3270
388  3215
387  3145
386  3260
385  3030
384  3150
383  3250
382  3415
381  3185
380  3260
379  3280
378  3380
377  3345
376  3335
375  3085
374  3200
373  3255
372  3235
371  3195
370  3345
369  3620
368  3075
367  3015
366  3405
365  3510
364  3200
363  3230
362  3315
361  3350
360  3260
359  3125
358  3270
357  3280
356  3390
355  3135
354  3455
353  3435
352  3225
351  3465
350  3340
349  3620
348  3495
347  3270
346  3310
345  3420
344  3325
343  3350
342  3255
341  3295
340  3365
339  3460
338  3240
337  3230
336  3295
335  3450
334  3495
333  3350
332  3370
331  3395
330  3370
329  3335
328  3315
327  3590
326  3450
325  3010
324  3450
323  3145
322  3335
321  3180
320  3540
319  3060
318  3675
317  3385
316  3590
315  3495
314  3540
313  3640
312  3620
311  3410
310  3305
309  3485
308  3180
307  3655
306  3240
305  3215
304  3225
303  3200
302  3175
301  2900
300  3155
299  3195
298  2980
297  3055
296  3090
295  2990
294  2800
293  3025
292  3130
291  3015
290  3510
289  4660
288  6720
287  7920
286  7015
285  4910
284  3105
283  2835
282  2485
281  2585
280  2580
279  2590
278  2595
277  2925
276  2645
275  2690
274  2495
273  2480
272  2675
271  2170
270  2455
269  2565
268  2400
267  2285
266  2220
265  2440
264  2285
263  2375
262  2280
261  2400
260  2330
259  2225
258  2495
257  2560
256  2380
255  2305
254  2300
253  2270
252  2280
251  2410
250  2095
249  2280
248  2315
247  2360
246  2345
245  2245
244  2365
243  2445
242  2415
241  2385
240  2260
239  2300
238  2335
237  2275
236  2190
235  2470
234  2115
233  2235
232  2255
231  2265
230  2180
229  2300
228  2135
227  2405
226  2150
225  2140
224  2210
223  1995
222  1875
221  1925
220  1935
219  1980
218  1890
217  2045
216  1935
215  1965
214  1980
213  1585
212  2020
211  2100
210  1965
209  1755
208  1900
207  1880
206  1680
205  1835
204  1940
203  2000
202  1830
201  1925
200  1815
199  2015
198  1760
197  1815
196  1860
195  1820
194  1780
193  1705
192  1715
191  1815
190  1690
189  1965
188  1760
187  1760
186  1655
185  1705
184  1770
183  1860
182  1935
181  1870
180  1790
179  1960
178  1640
177  1845
176  1870
175  1915
174  1835
173  1525
172  1780
171  1845
170  1670
169  1615
168  1615
167  1760
166  1570
165  1750
164  1580
163  1605
162  1590
161  1730
160  1720
159  1630
158  2230
157  2495
156  2570
155  2265
154  1885
153  1815
152  1545
151  1495
150  1405
149  1570
148  1595
147  1520
146  1645
145  1470
144  1560
143  1380
142  1430
141  1420
140  1420
139  1350
138  1555
137  1535
136  1320
135  1480
134  1410
133  1430
132  1585
131  1450
130  1525
129  1405
128  1500
127  1435
126  1605
125  1395
124  1520
123  1480
122  1400
121  1495
120  1375
119  1465
118  1220
117  1385
116  1300
115  1335
114  1385
113  1510
112  1335
111  1085
110  1300
109  1370
108  1570
107  1700
106  2095
105  2330
104  2015
103  1460
102  1145
101  1285
100  1165
99  1070
98  1295
97  1310
96  1305
95  1230
94  1225
93  1190
92  1210
91  1175
90  1215
89  1280
88  1165
87  1280
86  1195
85  1115
84  1145
83  1270
82  1145
81  1185
80  1225
79  1050
78  1210
77  1065
76  1290
75  1090
74  1110
73  1175
72  1165
71  1305
70  1140
69  1090
68  1040
67  1140
66  1120
65  1080
64  1125
63  1260
62  1190
61  1085
60  1215
59  1245
58  1080
57  1140
56  1150
55  1185
54  1195
53  1020
52  1200
51  1185
50  1165
49  1245
48  1195
47  1125
46  1145
45  1080
44  1070
43  1155
42  1055
41  1210
40  1145
39  1160
38  1035
37  1010
36  995
35  1165
34  1015
33  1150
32  1050
31  1050
30  1090
29  1355
28  1500
27  1550
26  1440
25  1365
24  1400
23  1335
22  1175
21  1030
20  1005
19  995
18  885
17  940
16  925
15  975
14  940
13  925
12  830
11  815
10  715
9  875
8  730
7  865
6  930
5  825
4  840
3  855
2  695
1  710
-2.2737368e-013  810
-1  705
-2  765
-3  750
-4  760

# Region:            Si2p
# Acquisition Date:  12/16/21 15:07:51 UTC
# Analysis Method:   XPS
# Analyzer:          Phoibos 100 R6
# Analyzer Lens:     LargeArea:1.5kV
# Analyzer Slit:     1:0.2x20\B:open
# Scan Mode:         FixedAnalyzerTransmission
# Curves/Scan:       1
# Values/Curve:      141
# Dwell Time:        0.8
# Excitation Energy: 1486.61
# Binding Energy:    112
# Pass Energy:       30
# Bias Voltage:      90
# Detector Voltage:  2600
# Eff. Workfunction: 4.309
# Source:            X-Ray Dummy
# Comment:           
#
# Cycle: 0
# Number of Scans: 6
#
# Cycle: 0, Curve: 0
# Acquisition Date: 12/16/21 15:07:51 UTC
#
# ColumnLabels: energy counts/s
#
112  440.20833
111.9  443.54167
111.8  431.66667
111.7  458.75
111.6  421.45833
111.5  443.54167
111.4  432.70833
111.3  446.875
111.2  456.25
111.1  434.58333
111  431.45833
110.9  432.08333
110.8  459.58333
110.7  443.95833
110.6  463.125
110.5  440.20833
110.4  433.54167
110.3  447.08333
110.2  432.91667
110.1  456.875
110  439.16667
109.9  455
109.8  434.375
109.7  459.79167
109.6  441.875
109.5  451.875
109.4  447.91667
109.3  456.04167
109.2  457.29167
109.1  470
109  442.29167
108.9  448.33333
108.8  457.5
108.7  442.29167
108.6  458.75
108.5  449.16667
108.4  446.25
108.3  478.75
108.2  447.29167
108.1  452.29167
108  467.5
107.9  461.45833
107.8  495.41667
107.7  479.79167
107.6  498.54167
107.5  508.125
107.4  527.70833
107.3  516.66667
107.2  531.04167
107.1  530
107  559.58333
106.9  594.79167
106.8  609.16667
106.7  623.75
106.6  650.41667
106.5  684.375
106.4  719.16667
106.3  730
106.2  742.08333
106.1  775.41667
106  811.04167
105.9  843.54167
105.8  833.33333
105.7  860.83333
105.6  885.41667
105.5  936.45833
105.4  892.29167
105.3  933.95833
105.2  911.25
105.1  904.16667
105  925.625
104.9  921.45833
104.8  886.25
104.7  886.25
104.6  842.29167
104.5  836.66667
104.4  827.5
104.3  794.79167
104.2  764.58333
104.1  740.20833
104  687.29167
103.9  707.29167
103.8  642.70833
103.7  602.08333
103.6  614.375
103.5  584.58333
103.4  581.25
103.3  544.375
103.2  526.04167
103.1  526.66667
103  512.70833
102.9  498.54167
102.8  474.375
102.7  470.41667
102.6  465.625
102.5  450.20833
102.4  461.66667
102.3  460.625
102.2  453.95833
102.1  452.70833
102  431.45833
101.9  439.375
101.8  421.66667
101.7  436.25
101.6  429.58333
101.5  433.33333
101.4  440.20833
101.3  420.625
101.2  435.625
101.1  433.54167
101  416.45833
100.9  428.54167
100.8  422.70833
100.7  440.41667
100.6  434.58333
100.5  429.58333
100.4  422.70833
100.3  440.41667
100.2  433.75
100.1  456.04167
100  421.66667
99.9  431.875
99.8  434.375
99.7  441.875
99.6  460
99.5  426.25
99.4  434.375
99.3  431.25
99.2  431.875
99.1  427.70833
99  415.41667
98.9  426.25
98.8  436.875
98.7  434.375
98.6  431.875
98.5  427.29167
98.4  438.125
98.3  437.70833
98.2  425
98.1  417.70833
98  432.91667

# Region:            O1s
# Acquisition Date:  12/16/21 14:45:59 UTC
# Analysis Method:   XPS
# Analyzer:          Phoibos 100 R6
# Analyzer Lens:     LargeArea:1.5kV
# Analyzer Slit:     1:0.2x20\B:open
# Scan Mode:         FixedAnalyzerTransmission
# Curves/Scan:       1
# Values/Curve:      171
# Dwell Time:        0.8
# Excitation Energy: 1486.61
# Binding Energy:    545
# Pass Energy:       30
# Bias Voltage:      90
# Detector Voltage:  2600
# Eff. Workfunction: 4.309
# Source:            X-Ray Dummy
# Comment:           
#
# Cycle: 0
# Number of Scans: 2
#
# Cycle: 0, Curve: 0
# Acquisition Date: 12/16/21 14:45:59 UTC
#
# ColumnLabels: energy counts/s
#
545  1544.375
544.9  1426.25
544.8  1469.375
544.7  1520.625
544.6  1443.75
544.5  1457.5
544.4  1440.625
544.3  1480
544.2  1518.75
544.1  1418.75
544  1463.125
543.9  1485.625
543.8  1413.75
543.7  1401.25
543.6  1466.25
543.5  1428.75
543.4  1373.125
543.3  1449.375
543.2  1419.375
543.1  1411.25
543  1393.75
542.9  1450
542.8  1420.625
542.7  1408.125
542.6  1428.75
542.5  1398.75
542.4  1365
542.3  1391.25
542.2  1394.375
542.1  1410
542  1389.375
541.9  1391.875
541.8  1393.125
541.7  1400
541.6  1458.125
541.5  1380
541.4  1426.25
541.3  1346.875
541.2  1380
541.1  1400.625
541  1397.5
540.9  1368.125
540.8  1370.625
540.7  1352.5
540.6  1375
540.5  1446.875
540.4  1373.75
540.3  1350
540.2  1322.5
540.1  1401.25
540  1374.375
539.9  1335
539.8  1326.25
539.7  1369.375
539.6  1387.5
539.5  1399.375
539.4  1400.625
539.3  1399.375
539.2  1397.5
539.1  1375.625
539  1396.875
538.9  1405.625
538.8  1460
538.7  1408.75
538.6  1430
538.5  1421.25
538.4  1436.25
538.3  1411.875
538.2  1418.125
538.1  1415.625
538  1441.875
537.9  1473.75
537.8  1442.5
537.7  1505.625
537.6  1485.625
537.5  1451.875
537.4  1568.75
537.3  1563.75
537.2  1648.125
537.1  1700.625
537  1733.125
536.9  1752.5
536.8  1833.75
536.7  1815
536.6  1884.375
536.5  1966.875
536.4  2015.625
536.3  2183.75
536.2  2311.25
536.1  2431.25
536  2520.625
535.9  2823.125
535.8  2941.25
535.7  3125
535.6  3636.875
535.5  3554.375
535.4  3699.375
535.3  3823.125
535.2  4111.875
535.1  4320.625
535  4572.5
534.9  4770
534.8  4936.25
534.7  5022.5
534.6  5179.375
534.5  5230.625
534.4  5238.75
534.3  5346.875
534.2  5251.25
534.1  5297.5
534  5200
533.9  4945
533.8  4735.625
533.7  4636.25
533.6  4380
533.5  4124.375
533.4  3865.625
533.3  3554.375
533.2  3344.375
533.1  3128.125
533  2906.25
532.9  2699.375
532.8  2439.375
532.7  2237.5
532.6  2098.125
532.5  1988.75
532.4  1903.125
532.3  1856.25
532.2  1828.75
532.1  1731.875
532  1630.625
531.9  1693.75
531.8  1627.5
531.7  1543.125
531.6  1559.375
531.5  1527.5
531.4  1486.875
531.3  1420.625
531.2  1436.875
531.1  1463.125
531  1451.875
530.9  1380
530.8  1425.625
530.7  1338.75
530.6  1361.25
530.5  1357.5
530.4  1361.875
530.3  1300.625
530.2  1358.125
530.1  1330
530  1295.625
529.9  1357.5
529.8  1229.375
529.7  1281.25
529.6  1265.625
529.5  1252.5
529.4  1237.5
529.3  1269.375
529.2  1297.5
529.1  1255
529  1258.125
528.9  1258.125
528.8  1282.5
528.7  1274.375
528.6  1275
528.5  1278.125
528.4  1301.875
528.3  1249.375
528.2  1229.375
528.1  1218.125
528  1213.125

