# Created by:        SpecsLab Prodigy, Version 4.60.2-r85849 
#
# XY-Serializer Export Settings:
#   Comment Prefix:           #
#   Output meta data:         yes
#   Energy Axis:              Binding Energy
#   Count Rate:               Counts per Second
#   Separate Scan Data:       no
#   Separate Channel Data:    no
#   External Channel Data:    yes
#   Transmission Function:    no
#   ErrorBar:                 no
#   Operation Results:        yes
#   Time Zone Format:         UTC
#
# Group:             Spectrum Group
#
# Region:            C1s
# Acquisition Date:  12/15/21 15:46:59 UTC
# Analysis Method:   XPS
# Analyzer:          Phoibos 100 R6
# Analyzer Lens:     LargeArea:1.5kV
# Analyzer Slit:     1:0.2x20\B:open
# Scan Mode:         FixedAnalyzerTransmission
# Curves/Scan:       1
# Values/Curve:      131
# Dwell Time:        0.8
# Excitation Energy: 1486.61
# Binding Energy:    295
# Pass Energy:       30
# Bias Voltage:      90
# Detector Voltage:  2600
# Eff. Workfunction: 4.309
# Source:            X-Ray Dummy
# Comment:           
#
# Cycle: 0
# Number of Scans: 5
#
# Cycle: 0, Curve: 0
# Acquisition Date: 12/15/21 15:46:59 UTC
#
# ColumnLabels: energy counts/s
#
295  1078
294.9  1096
294.8  1070.25
294.7  1102.5
294.6  1108.5
294.5  1084
294.4  1122.25
294.3  1097.75
294.2  1112
294.1  1124.75
294  1080.5
293.9  1100
293.8  1104.75
293.7  1041
293.6  1072
293.5  1081.75
293.4  1064.5
293.3  1081
293.2  1099.5
293.1  1083.75
293  1085.5
292.9  1079.25
292.8  1101
292.7  1124.5
292.6  1083.75
292.5  1090.25
292.4  1115
292.3  1079.5
292.2  1091.75
292.1  1087.5
292  1146
291.9  1096.75
291.8  1095.25
291.7  1070.75
291.6  1120.5
291.5  1113.75
291.4  1092
291.3  1120.75
291.2  1107
291.1  1109.75
291  1125.5
290.9  1109
290.8  1115
290.7  1127.5
290.6  1106
290.5  1125.75
290.4  1124.75
290.3  1107.75
290.2  1125.5
290.1  1135.75
290  1153.5
289.9  1163.25
289.8  1133.75
289.7  1122.75
289.6  1120.25
289.5  1158.5
289.4  1156
289.3  1156.5
289.2  1131.25
289.1  1157.5
289  1133.25
288.9  1164.75
288.8  1149.5
288.7  1144.75
288.6  1154
288.5  1162.75
288.4  1168.25
288.3  1156.75
288.2  1179.25
288.1  1155.25
288  1139.25
287.9  1087.75
287.8  1150.75
287.7  1141
287.6  1153.5
287.5  1136
287.4  1103.25
287.3  1133.25
287.2  1134.5
287.1  1108
287  1106.25
286.9  1108.25
286.8  1122.25
286.7  1121.75
286.6  1108.75
286.5  1087.25
286.4  1090.5
286.3  1107.75
286.2  1081.25
286.1  1094.25
286  1123.5
285.9  1101.25
285.8  1093.5
285.7  1091.25
285.6  1095.5
285.5  1109.5
285.4  1087
285.3  1112.5
285.2  1099
285.1  1097.75
285  1101.75
284.9  1110.25
284.8  1133.25
284.7  1103.25
284.6  1116
284.5  1113.75
284.4  1110.5
284.3  1110
284.2  1102.25
284.1  1118.25
284  1104.25
283.9  1118.5
283.8  1090.75
283.7  1106.5
283.6  1110.5
283.5  1105.25
283.4  1127.75
283.3  1116.25
283.2  1114
283.1  1122.5
283  1119.75
282.9  1115
282.8  1125.75
282.7  1107.5
282.6  1119.75
282.5  1102.25
282.4  1103
282.3  1118
282.2  1120.25
282.1  1103
282  1127.5

# Region:            N1s
# Acquisition Date:  12/15/21 15:54:05 UTC
# Analysis Method:   XPS
# Analyzer:          Phoibos 100 R6
# Analyzer Lens:     LargeArea:1.5kV
# Analyzer Slit:     1:0.2x20\B:open
# Scan Mode:         FixedAnalyzerTransmission
# Curves/Scan:       1
# Values/Curve:      131
# Dwell Time:        0.8
# Excitation Energy: 1486.61
# Binding Energy:    408
# Pass Energy:       30
# Bias Voltage:      90
# Detector Voltage:  2600
# Eff. Workfunction: 4.309
# Source:            X-Ray Dummy
# Comment:           
#
# Cycle: 0
# Number of Scans: 8
#
# Cycle: 0, Curve: 0
# Acquisition Date: 12/15/21 15:54:05 UTC
#
# ColumnLabels: energy counts/s
#
408  1209.2188
407.9  1229.2188
407.8  1220.625
407.7  1223.4375
407.6  1195.625
407.5  1212.0313
407.4  1205.7813
407.3  1203.5938
407.2  1263.9063
407.1  1220.9375
407  1236.7188
406.9  1225.7813
406.8  1235
406.7  1229.0625
406.6  1220
406.5  1230.4688
406.4  1254.6875
406.3  1238.9063
406.2  1227.1875
406.1  1239.6875
406  1248.2813
405.9  1236.875
405.8  1255.3125
405.7  1267.3438
405.6  1233.4375
405.5  1246.7188
405.4  1266.875
405.3  1257.9688
405.2  1255.7813
405.1  1249.5313
405  1276.4063
404.9  1251.5625
404.8  1235.9375
404.7  1269.2188
404.6  1284.6875
404.5  1277.6563
404.4  1298.75
404.3  1275
404.2  1269.6875
404.1  1294.2188
404  1283.9063
403.9  1299.8438
403.8  1285
403.7  1279.6875
403.6  1301.875
403.5  1311.5625
403.4  1319.5313
403.3  1309.8438
403.2  1298.125
403.1  1294.8438
403  1447.6563
402.9  1316.7188
402.8  1297.9688
402.7  1303.125
402.6  1311.5625
402.5  1321.4063
402.4  1336.5625
402.3  1298.5938
402.2  1281.4063
402.1  1297.3438
402  1341.25
401.9  1287.9688
401.8  1328.125
401.7  1278.5938
401.6  1303.125
401.5  1292.3438
401.4  1291.25
401.3  1259.2188
401.2  1281.25
401.1  1267.8125
401  1289.0625
400.9  1271.4063
400.8  1268.5938
400.7  1283.75
400.6  1262.9688
400.5  1257.5
400.4  1238.125
400.3  1245.7813
400.2  1252.5
400.1  1259.8438
400  1269.375
399.9  1250.4688
399.8  1251.25
399.7  1251.25
399.6  1219.375
399.5  1241.5625
399.4  1241.0938
399.3  1241.4063
399.2  1222.9688
399.1  1184.6875
399  1229.8438
398.9  1209.375
398.8  1176.7188
398.7  1206.7188
398.6  1203.75
398.5  1200.3125
398.4  1202.3438
398.3  1185.4688
398.2  1205.1563
398.1  1188.9063
398  1186.0938
397.9  1189.8438
397.8  1190.3125
397.7  1176.5625
397.6  1202.5
397.5  1172.3438
397.4  1190.3125
397.3  1158.5938
397.2  1174.2188
397.1  1162.8125
397  1149.6875
396.9  1150.3125
396.8  1166.4063
396.7  1157.0313
396.6  1169.6875
396.5  1177.9688
396.4  1195
396.3  1176.5625
396.2  1143.5938
396.1  1114.0625
396  1151.5625
395.9  1133.75
395.8  1153.75
395.7  1166.875
395.6  1148.125
395.5  1169.5313
395.4  1173.125
395.3  1157.9688
395.2  1161.5625
395.1  1171.4063
395  1155

# Region:            overview
# Acquisition Date:  12/15/21 15:24:10 UTC
# Analysis Method:   XPS
# Analyzer:          Phoibos 100 R6
# Analyzer Lens:     LargeArea:1.5kV
# Analyzer Slit:     1:0.2x20\B:open
# Scan Mode:         FixedAnalyzerTransmission
# Curves/Scan:       1
# Values/Curve:      1205
# Dwell Time:        0.2
# Excitation Energy: 1486.61
# Binding Energy:    1200
# Pass Energy:       50
# Bias Voltage:      90
# Detector Voltage:  2600
# Eff. Workfunction: 4.309
# Source:            X-Ray Dummy
# Comment:           
#
# Cycle: 0
# Number of Scans: 1
#
# Cycle: 0, Curve: 0
# Acquisition Date: 12/15/21 15:24:10 UTC
#
# ColumnLabels: energy counts/s
#
1200  10320
1199  9680
1198  10410
1197  10245
1196  10475
1195  10345
1194  10170
1193  10425
1192  10070
1191  10280
1190  10465
1189  10185
1188  9955
1187  10605
1186  9965
1185  10205
1184  10350
1183  10000
1182  10225
1181  9980
1180  9765
1179  10115
1178  9870
1177  10140
1176  10020
1175  9680
1174  9915
1173  9770
1172  10075
1171  9815
1170  9745
1169  9955
1168  9740
1167  9850
1166  10075
1165  10190
1164  10240
1163  10205
1162  9900
1161  9540
1160  9885
1159  10320
1158  10210
1157  9865
1156  10055
1155  10150
1154  10310
1153  9895
1152  9935
1151  9880
1150  9850
1149  10050
1148  10000
1147  9475
1146  9830
1145  10125
1144  9875
1143  9895
1142  10330
1141  10240
1140  9795
1139  9620
1138  9915
1137  9775
1136  9905
1135  9930
1134  9995
1133  9970
1132  10100
1131  10245
1130  10025
1129  9835
1128  9775
1127  10200
1126  9945
1125  9605
1124  9670
1123  9885
1122  9690
1121  10150
1120  10130
1119  10250
1118  9595
1117  10010
1116  9920
1115  9915
1114  9885
1113  10285
1112  10035
1111  9830
1110  9665
1109  9675
1108  9735
1107  9660
1106  10030
1105  9900
1104  10025
1103  10165
1102  10245
1101  9850
1100  9890
1099  9970
1098  9885
1097  10000
1096  9855
1095  9785
1094  10115
1093  9965
1092  9945
1091  9865
1090  10150
1089  9730
1088  10000
1087  10175
1086  10020
1085  10090
1084  9700
1083  10180
1082  10170
1081  9785
1080  9965
1079  9575
1078  9930
1077  10025
1076  9610
1075  10145
1074  10325
1073  10155
1072  9765
1071  10070
1070  9775
1069  9915
1068  10275
1067  10075
1066  10085
1065  9465
1064  9860
1063  9935
1062  10120
1061  9850
1060  10370
1059  10245
1058  10255
1057  9865
1056  10105
1055  9665
1054  10150
1053  9705
1052  9935
1051  9895
1050  9855
1049  10460
1048  10100
1047  9970
1046  10045
1045  10260
1044  10390
1043  10225
1042  10075
1041  10015
1040  10445
1039  9930
1038  10205
1037  10345
1036  10200
1035  10410
1034  10220
1033  10290
1032  10620
1031  10805
1030  10115
1029  10060
1028  10345
1027  10575
1026  9985
1025  10435
1024  10890
1023  10860
1022  10800
1021  10780
1020  10480
1019  10640
1018  10595
1017  10275
1016  10260
1015  10510
1014  10580
1013  10550
1012  10685
1011  10955
1010  11015
1009  11600
1008  11585
1007  11280
1006  11320
1005  11610
1004  11335
1003  10870
1002  10895
1001  10555
1000  10515
999  10285
998  10215
997  9660
996  10255
995  9965
994  10125
993  10150
992  10310
991  10580
990  10810
989  10780
988  11875
987  12195
986  12840
985  13385
984  13560
983  13285
982  12225
981  11600
980  10630
979  9960
978  10255
977  9485
976  9215
975  9250
974  8530
973  8390
972  7950
971  7890
970  7980
969  7135
968  6855
967  7010
966  7485
965  7645
964  7545
963  7315
962  7380
961  6975
960  7165
959  7420
958  7495
957  7265
956  7090
955  7265
954  6900
953  7170
952  7530
951  7410
950  7095
949  7670
948  6860
947  7025
946  7370
945  7125
944  6975
943  7190
942  7165
941  7215
940  7150
939  7350
938  7215
937  7105
936  7260
935  7140
934  6945
933  7235
932  7200
931  7280
930  7135
929  7185
928  7470
927  7190
926  7595
925  7375
924  7355
923  7455
922  7420
921  7135
920  7280
919  7265
918  7140
917  7195
916  7400
915  7375
914  7365
913  7760
912  6990
911  7175
910  7395
909  7540
908  7130
907  7245
906  7270
905  7310
904  7220
903  7585
902  7195
901  7320
900  7685
899  7340
898  7100
897  7310
896  7195
895  7575
894  7300
893  7430
892  7665
891  7565
890  7740
889  7525
888  7335
887  7160
886  7265
885  7200
884  7435
883  7340
882  7275
881  7130
880  7925
879  7160
878  7395
877  7350
876  7725
875  7200
874  7365
873  7530
872  7310
871  7095
870  7200
869  7425
868  7150
867  7125
866  7075
865  7250
864  7255
863  7290
862  7310
861  7560
860  7490
859  7580
858  7135
857  7265
856  7375
855  7020
854  7125
853  7635
852  7410
851  7695
850  7385
849  7460
848  7325
847  6950
846  7190
845  7815
844  7095
843  7160
842  7335
841  7320
840  7205
839  6955
838  7545
837  7495
836  7495
835  7445
834  7355
833  7035
832  7205
831  7260
830  7490
829  7345
828  7700
827  7100
826  7375
825  7220
824  7660
823  7335
822  7600
821  7080
820  7355
819  7320
818  7440
817  7055
816  7000
815  7505
814  7300
813  7605
812  7345
811  7300
810  7615
809  7095
808  7580
807  6940
806  7240
805  7125
804  6990
803  7350
802  6995
801  7320
800  7580
799  7120
798  7385
797  7675
796  7515
795  7735
794  7225
793  7750
792  7330
791  7265
790  7510
789  7470
788  7260
787  7365
786  7440
785  7405
784  7490
783  7225
782  7290
781  7565
780  7320
779  7235
778  7175
777  7145
776  7265
775  7655
774  7355
773  7380
772  7500
771  7440
770  7160
769  7220
768  7410
767  7490
766  7480
765  7165
764  7530
763  7280
762  7450
761  7400
760  7545
759  7370
758  7175
757  7230
756  7255
755  7710
754  7480
753  7450
752  7320
751  7420
750  7245
749  7280
748  7460
747  7360
746  7235
745  7315
744  7405
743  7160
742  7460
741  7475
740  7700
739  7530
738  7440
737  7395
736  7510
735  7395
734  7490
733  7830
732  7840
731  7770
730  7515
729  7410
728  7460
727  7470
726  7495
725  7435
724  7260
723  7160
722  7465
721  7410
720  7525
719  7525
718  7610
717  7570
716  7695
715  7690
714  7370
713  7475
712  7790
711  7510
710  7355
709  7565
708  7425
707  7255
706  7495
705  7500
704  7600
703  7635
702  7230
701  7475
700  7255
699  6980
698  7480
697  7620
696  7665
695  7780
694  7420
693  7900
692  7455
691  7675
690  7485
689  7410
688  7135
687  7635
686  7705
685  7795
684  7175
683  7555
682  7700
681  7925
680  7730
679  7980
678  7690
677  7635
676  7535
675  7665
674  7695
673  7550
672  7810
671  7495
670  7680
669  7710
668  7425
667  7530
666  7740
665  7675
664  8005
663  7955
662  7605
661  7570
660  7850
659  7250
658  7485
657  7570
656  7430
655  7545
654  7565
653  7280
652  7715
651  7775
650  6975
649  7245
648  7950
647  7645
646  7750
645  7990
644  7440
643  7855
642  7600
641  7915
640  7290
639  7805
638  7780
637  7895
636  7445
635  7425
634  7750
633  7745
632  7380
631  7930
630  8225
629  7795
628  7815
627  7860
626  7845
625  7710
624  7975
623  8025
622  7595
621  7815
620  7480
619  7890
618  7550
617  8045
616  7940
615  8015
614  7715
613  7715
612  7740
611  7905
610  7810
609  7875
608  7580
607  7800
606  7870
605  7915
604  7910
603  7825
602  8020
601  8045
600  7825
599  7780
598  7765
597  8015
596  8015
595  7950
594  7845
593  8365
592  7885
591  8220
590  7895
589  7865
588  7990
587  8235
586  8285
585  8370
584  8285
583  7980
582  8385
581  8240
580  8245
579  7985
578  7875
577  8020
576  8160
575  8190
574  8160
573  7530
572  8275
571  7750
570  7855
569  7725
568  8020
567  8590
566  8265
565  8660
564  8310
563  9075
562  8965
561  8975
560  8875
559  9080
558  8700
557  8775
556  8300
555  7660
554  7845
553  7110
552  7190
551  7180
550  7120
549  6840
548  6565
547  6130
546  6040
545  5400
544  5480
543  5535
542  5735
541  5870
540  7300
539  12040
538  21910
537  29030
536  21535
535  10495
534  6460
533  5900
532  6300
531  5850
530  5560
529  5395
528  6170
527  6630
526  6185
525  5650
524  5150
523  4920
522  4605
521  4775
520  4460
519  4695
518  4405
517  4595
516  4485
515  4670
514  4685
513  4510
512  4335
511  4335
510  4340
509  4165
508  4065
507  4510
506  4455
505  4410
504  4525
503  4515
502  4285
501  4450
500  4240
499  4580
498  4395
497  4590
496  4375
495  4235
494  4280
493  4420
492  4610
491  4135
490  4385
489  4115
488  4150
487  4185
486  4290
485  4030
484  4115
483  4380
482  4045
481  4095
480  4280
479  4105
478  4260
477  4415
476  4095
475  4310
474  4265
473  4085
472  4215
471  4325
470  4330
469  4385
468  4635
467  4720
466  4420
465  4820
464  4410
463  4210
462  4280
461  4035
460  3990
459  4335
458  4130
457  4045
456  4020
455  4015
454  4045
453  3975
452  4405
451  3905
450  4165
449  4045
448  3900
447  3890
446  3860
445  3620
444  4005
443  3970
442  3950
441  4080
440  3860
439  3760
438  4235
437  4010
436  3980
435  3895
434  3795
433  3940
432  3965
431  3700
430  3840
429  3950
428  3750
427  4050
426  3840
425  4165
424  4030
423  4100
422  4020
421  4035
420  3945
419  3845
418  4035
417  3730
416  3925
415  4060
414  4160
413  3800
412  3935
411  4055
410  4140
409  4005
408  3990
407  4065
406  4250
405  4290
404  4095
403  4285
402  4135
401  4145
400  3950
399  4135
398  3875
397  4105
396  3735
395  3825
394  3840
393  3655
392  3450
391  3650
390  3795
389  3520
388  3555
387  3505
386  3415
385  3265
384  3470
383  3535
382  3645
381  3345
380  3495
379  3585
378  3365
377  3705
376  3675
375  3570
374  3440
373  3695
372  3390
371  3405
370  3420
369  3695
368  3620
367  3530
366  3265
365  3430
364  3525
363  3470
362  3465
361  3610
360  3500
359  3185
358  3500
357  3190
356  3240
355  3250
354  3310
353  3460
352  3555
351  3670
350  3630
349  3560
348  3495
347  3500
346  3605
345  3285
344  3400
343  3225
342  3550
341  3390
340  3235
339  3370
338  3445
337  3155
336  3335
335  3405
334  3280
333  3485
332  3435
331  3275
330  3245
329  3425
328  3275
327  3585
326  3560
325  3500
324  3380
323  3495
322  3300
321  3175
320  3315
319  3400
318  3490
317  3220
316  3190
315  3260
314  3365
313  3645
312  3395
311  3345
310  3310
309  3480
308  3365
307  3180
306  3360
305  3365
304  3245
303  3220
302  3300
301  3375
300  3570
299  3495
298  3480
297  3405
296  3435
295  3330
294  3255
293  3360
292  3535
291  3355
290  3465
289  3605
288  3440
287  3485
286  3650
285  3285
284  3515
283  3695
282  3390
281  3175
280  3240
279  3395
278  3435
277  3405
276  3285
275  3305
274  3345
273  3290
272  3210
271  3550
270  3620
269  3165
268  3310
267  3345
266  3350
265  3445
264  3490
263  3455
262  3570
261  3525
260  3220
259  3600
258  3610
257  3475
256  3420
255  3575
254  3575
253  3360
252  3520
251  3665
250  3555
249  3545
248  3705
247  3775
246  3820
245  3610
244  3825
243  3965
242  3740
241  3815
240  4100
239  4145
238  3855
237  3860
236  3420
235  3595
234  3775
233  3625
232  3870
231  3775
230  3915
229  4110
228  4140
227  3980
226  3675
225  3575
224  3180
223  3165
222  2945
221  3080
220  2900
219  2920
218  2935
217  2655
216  2605
215  2590
214  2705
213  2640
212  2700
211  2725
210  2630
209  2545
208  2700
207  2585
206  2675
205  2495
204  2570
203  2520
202  2425
201  2575
200  2870
199  2570
198  2575
197  2480
196  2555
195  2630
194  2625
193  2600
192  2555
191  2705
190  2510
189  2830
188  2840
187  2920
186  2770
185  2720
184  2690
183  2940
182  2690
181  2800
180  2740
179  2745
178  2825
177  2695
176  2750
175  2810
174  2560
173  2220
172  2660
171  2320
170  2415
169  2265
168  2435
167  2405
166  2295
165  2440
164  2505
163  2560
162  2950
161  3490
160  4585
159  5400
158  4970
157  4105
156  2955
155  2615
154  2265
153  2340
152  2355
151  2350
150  2330
149  2280
148  2180
147  2285
146  2255
145  2050
144  2200
143  2070
142  2000
141  1870
140  2010
139  1945
138  2085
137  2020
136  2050
135  1835
134  2120
133  2335
132  2195
131  2095
130  2265
129  2150
128  2055
127  2105
126  2200
125  1935
124  2115
123  2100
122  2165
121  1835
120  1830
119  1930
118  1745
117  1655
116  1715
115  1985
114  1625
113  1885
112  1815
111  1780
110  2495
109  3800
108  5250
107  4775
106  2990
105  1980
104  1500
103  1735
102  1635
101  1675
100  1670
99  1870
98  1910
97  1895
96  2000
95  1870
94  1920
93  1735
92  1660
91  1795
90  1880
89  1795
88  1650
87  1655
86  1920
85  1625
84  1700
83  1655
82  1440
81  1665
80  1740
79  1605
78  1740
77  1500
76  1660
75  1625
74  1730
73  1810
72  1685
71  1780
70  1660
69  1665
68  1545
67  1660
66  1785
65  1590
64  1640
63  1700
62  1600
61  1580
60  1575
59  1720
58  1625
57  1860
56  1670
55  1610
54  1540
53  1685
52  1665
51  1610
50  1705
49  1830
48  1580
47  1560
46  1740
45  1730
44  1810
43  1855
42  1740
41  1640
40  1585
39  1595
38  1720
37  1625
36  1725
35  1800
34  1885
33  1815
32  1970
31  2125
30  2515
29  2355
28  2305
27  2160
26  2145
25  2275
24  2205
23  2230
22  1710
21  1420
20  1245
19  1415
18  1380
17  1360
16  1215
15  1320
14  1335
13  1265
12  1395
11  1235
10  1115
9  1060
8  1065
7  1045
6  1095
5  975
4  1050
3  1125
2  995
1  925
-2.2737368e-013  1030
-1  935
-2  960
-3  885
-4  990

# Region:            Si2p
# Acquisition Date:  12/15/21 15:33:52 UTC
# Analysis Method:   XPS
# Analyzer:          Phoibos 100 R6
# Analyzer Lens:     LargeArea:1.5kV
# Analyzer Slit:     1:0.2x20\B:open
# Scan Mode:         FixedAnalyzerTransmission
# Curves/Scan:       1
# Values/Curve:      141
# Dwell Time:        0.8
# Excitation Energy: 1486.61
# Binding Energy:    112
# Pass Energy:       30
# Bias Voltage:      90
# Detector Voltage:  2600
# Eff. Workfunction: 4.309
# Source:            X-Ray Dummy
# Comment:           
#
# Cycle: 0
# Number of Scans: 2
#
# Cycle: 0, Curve: 0
# Acquisition Date: 12/15/21 15:33:52 UTC
#
# ColumnLabels: energy counts/s
#
112  635.625
111.9  620.625
111.8  625
111.7  626.875
111.6  623.125
111.5  631.875
111.4  620
111.3  626.25
111.2  648.75
111.1  630.625
111  660.625
110.9  650
110.8  620.625
110.7  603.75
110.6  678.75
110.5  655
110.4  669.375
110.3  690
110.2  735
110.1  726.25
110  726.875
109.9  782.5
109.8  790
109.7  816.875
109.6  895
109.5  931.875
109.4  910.625
109.3  966.25
109.2  1050
109.1  1093.75
109  1223.75
108.9  1256.25
108.8  1400
108.7  1464.375
108.6  1533.75
108.5  1643.75
108.4  1680.625
108.3  1776.875
108.2  1861.875
108.1  1968.125
108  1913.75
107.9  2005.625
107.8  2053.125
107.7  2041.875
107.6  2087.5
107.5  2035
107.4  2054.375
107.3  2006.875
107.2  1993.125
107.1  1820.625
107  1833.75
106.9  1773.125
106.8  1641.25
106.7  1496.875
106.6  1453.125
106.5  1383.75
106.4  1288.75
106.3  1224.375
106.2  1120
106.1  1060.625
106  1053.75
105.9  960.625
105.8  934.375
105.7  876.875
105.6  796.875
105.5  730.625
105.4  776.25
105.3  737.5
105.2  728.75
105.1  709.375
105  680.625
104.9  680.625
104.8  644.375
104.7  607.5
104.6  624.375
104.5  648.75
104.4  649.375
104.3  600.625
104.2  601.25
104.1  575.625
104  606.25
103.9  611.875
103.8  586.25
103.7  611.875
103.6  606.875
103.5  606.875
103.4  586.25
103.3  572.5
103.2  574.375
103.1  555
103  642.5
102.9  567.5
102.8  606.25
102.7  559.375
102.6  615.625
102.5  656.25
102.4  585.625
102.3  601.25
102.2  576.25
102.1  593.75
102  566.25
101.9  629.375
101.8  578.125
101.7  553.75
101.6  602.5
101.5  588.75
101.4  591.25
101.3  593.75
101.2  553.75
101.1  618.125
101  568.75
100.9  590.625
100.8  587.5
100.7  573.75
100.6  588.75
100.5  556.25
100.4  593.125
100.3  602.5
100.2  601.25
100.1  604.375
100  555.625
99.9  585.625
99.8  567.5
99.7  590
99.6  603.75
99.5  585.625
99.4  593.125
99.3  605
99.2  590.625
99.1  634.375
99  613.75
98.9  631.25
98.8  620.625
98.7  638.75
98.6  622.5
98.5  676.875
98.4  671.875
98.3  691.875
98.2  652.5
98.1  650
98  688.75

# Region:            O1s
# Acquisition Date:  12/15/21 15:45:13 UTC
# Analysis Method:   XPS
# Analyzer:          Phoibos 100 R6
# Analyzer Lens:     LargeArea:1.5kV
# Analyzer Slit:     1:0.2x20\B:open
# Scan Mode:         FixedAnalyzerTransmission
# Curves/Scan:       1
# Values/Curve:      171
# Dwell Time:        0.8
# Excitation Energy: 1486.61
# Binding Energy:    545
# Pass Energy:       30
# Bias Voltage:      90
# Detector Voltage:  2600
# Eff. Workfunction: 4.309
# Source:            X-Ray Dummy
# Comment:           
#
# Cycle: 0
# Number of Scans: 2
#
# Cycle: 0, Curve: 0
# Acquisition Date: 12/15/21 15:45:13 UTC
#
# ColumnLabels: energy counts/s
#
545  1659.375
544.9  1650
544.8  1678.125
544.7  1666.25
544.6  1648.75
544.5  1645
544.4  1694.375
544.3  1606.875
544.2  1655.625
544.1  1635.625
544  1619.375
543.9  1610
543.8  1577.5
543.7  1636.25
543.6  1673.75
543.5  1644.375
543.4  1632.5
543.3  1621.875
543.2  1645
543.1  1613.75
543  1632.5
542.9  1576.875
542.8  1589.375
542.7  1631.25
542.6  1681.875
542.5  1678.125
542.4  1659.375
542.3  1660.625
542.2  1651.25
542.1  1666.875
542  1640
541.9  1670.625
541.8  1630
541.7  1682.5
541.6  1736.875
541.5  1695.625
541.4  1697.5
541.3  1758.75
541.2  1785.625
541.1  1756.875
541  1783.75
540.9  1770
540.8  1744.375
540.7  1781.875
540.6  1807.5
540.5  1885.625
540.4  1877.5
540.3  1891.875
540.2  1918.125
540.1  2000
540  2068.75
539.9  2121.875
539.8  2148.75
539.7  2182.5
539.6  2283.125
539.5  2353.75
539.4  2500.625
539.3  2583.125
539.2  2803.125
539.1  3010.625
539  3193.75
538.9  3430
538.8  3722.5
538.7  3979.375
538.6  4386.25
538.5  4691.875
538.4  5201.25
538.3  5615
538.2  6058.125
538.1  6610
538  7308.125
537.9  7780
537.8  8428.125
537.7  8909.375
537.6  9732.5
537.5  10035
537.4  10615
537.3  10881.875
537.2  11340.625
537.1  11512.5
537  11488.125
536.9  11465
536.8  11495.625
536.7  11116.875
536.6  10966.875
536.5  10519.375
536.4  9989.375
536.3  9584.375
536.2  8907.5
536.1  8406.25
536  7630
535.9  7184.375
535.8  6491.875
535.7  5838.125
535.6  5450
535.5  4825
535.4  4363.125
535.3  3953.75
535.2  3473.75
535.1  3328.125
535  2924.375
534.9  2815
534.8  2533.75
534.7  2470.625
534.6  2371.25
534.5  2283.125
534.4  2071.875
534.3  2065
534.2  2006.875
534.1  1898.125
534  1809.375
533.9  1878.75
533.8  1807.5
533.7  1802.5
533.6  1744.375
533.5  1736.25
533.4  1709.375
533.3  1702.5
533.2  1751.875
533.1  1726.875
533  1710
532.9  1728.75
532.8  1759.375
532.7  1723.75
532.6  1667.5
532.5  1710
532.4  1740.625
532.3  1680
532.2  1716.25
532.1  1852.5
532  1770.625
531.9  1853.125
531.8  1846.25
531.7  1768.75
531.6  1796.875
531.5  1848.75
531.4  1903.75
531.3  1805
531.2  1806.25
531.1  1751.875
531  1803.125
530.9  1725.625
530.8  1726.25
530.7  1691.875
530.6  1659.375
530.5  1655
530.4  1635.625
530.3  1546.25
530.2  1566.875
530.1  1517.5
530  1582.5
529.9  1505.625
529.8  1505.625
529.7  1488.125
529.6  1490.625
529.5  1516.25
529.4  1498.75
529.3  1515
529.2  1525.625
529.1  1523.125
529  1560.625
528.9  1585
528.8  1602.5
528.7  1593.125
528.6  1668.125
528.5  1732.5
528.4  1720
528.3  1773.125
528.2  1783.125
528.1  1761.25
528  1882.5

