# Created by:        SpecsLab Prodigy, Version 4.60.2-r85849 
#
# XY-Serializer Export Settings:
#   Comment Prefix:           #
#   Output meta data:         yes
#   Energy Axis:              Binding Energy
#   Count Rate:               Counts per Second
#   Separate Scan Data:       no
#   Separate Channel Data:    no
#   External Channel Data:    yes
#   Transmission Function:    no
#   ErrorBar:                 no
#   Operation Results:        yes
#   Time Zone Format:         UTC
#
# Group:             Spectrum Group
#
# Region:            C1s
# Acquisition Date:  12/15/21 17:08:30 UTC
# Analysis Method:   XPS
# Analyzer:          Phoibos 100 R6
# Analyzer Lens:     LargeArea:1.5kV
# Analyzer Slit:     1:0.2x20\B:open
# Scan Mode:         FixedAnalyzerTransmission
# Curves/Scan:       1
# Values/Curve:      131
# Dwell Time:        0.8
# Excitation Energy: 1486.61
# Binding Energy:    295
# Pass Energy:       30
# Bias Voltage:      90
# Detector Voltage:  2600
# Eff. Workfunction: 4.309
# Source:            X-Ray Dummy
# Comment:           
#
# Cycle: 0
# Number of Scans: 5
#
# Cycle: 0, Curve: 0
# Acquisition Date: 12/15/21 17:08:30 UTC
#
# ColumnLabels: energy counts/s
#
295  1109.75
294.9  1073.25
294.8  1093
294.7  1100.75
294.6  1097.25
294.5  1076
294.4  1115
294.3  1108.25
294.2  1102.25
294.1  1088.25
294  1112
293.9  1126.75
293.8  1091
293.7  1162.75
293.6  1100.75
293.5  1091.25
293.4  1118.5
293.3  1136.25
293.2  1123.75
293.1  1120.75
293  1124.75
292.9  1091.75
292.8  1136.5
292.7  1117.25
292.6  1142.5
292.5  1123.25
292.4  1120.25
292.3  1117
292.2  1107.75
292.1  1134.5
292  1128.5
291.9  1132.75
291.8  1146.25
291.7  1103.25
291.6  1126.75
291.5  1138.5
291.4  1124.25
291.3  1129
291.2  1137.25
291.1  1122.75
291  1134.25
290.9  1156.5
290.8  1131.5
290.7  1179.75
290.6  1160.5
290.5  1206
290.4  1140.75
290.3  1202.75
290.2  1221.75
290.1  1261
290  1280.25
289.9  1305
289.8  1316.75
289.7  1353.25
289.6  1348.25
289.5  1417.25
289.4  1474.25
289.3  1470.75
289.2  1538.5
289.1  1583.25
289  1592.75
288.9  1695
288.8  1692.25
288.7  1753.5
288.6  1822.5
288.5  1810.5
288.4  1896.75
288.3  1917.75
288.2  1931
288.1  1965.75
288  1995
287.9  2026.25
287.8  2010
287.7  2069.5
287.6  2079
287.5  2070.5
287.4  2087.25
287.3  2078
287.2  2123.25
287.1  2040.5
287  2101
286.9  2056.25
286.8  2025.5
286.7  2021.75
286.6  1978.25
286.5  1895.5
286.4  1829.75
286.3  1795.5
286.2  1767.75
286.1  1689.5
286  1628
285.9  1595.5
285.8  1480.75
285.7  1420.75
285.6  1405
285.5  1364.25
285.4  1289.5
285.3  1267.75
285.2  1258
285.1  1203
285  1191.5
284.9  1171
284.8  1141
284.7  1126.75
284.6  1125.75
284.5  1107.75
284.4  1101.25
284.3  1082.25
284.2  1094.5
284.1  1074.25
284  1083.75
283.9  1064.25
283.8  1063.75
283.7  1057.25
283.6  1049.25
283.5  1053.5
283.4  1063
283.3  1075
283.2  1082.75
283.1  1069
283  1072.5
282.9  1045.75
282.8  1053.25
282.7  1063.25
282.6  1052.75
282.5  1075
282.4  1049.75
282.3  1017
282.2  1063
282.1  1043
282  1031.75

# Region:            N1s
# Acquisition Date:  12/15/21 17:15:36 UTC
# Analysis Method:   XPS
# Analyzer:          Phoibos 100 R6
# Analyzer Lens:     LargeArea:1.5kV
# Analyzer Slit:     1:0.2x20\B:open
# Scan Mode:         FixedAnalyzerTransmission
# Curves/Scan:       1
# Values/Curve:      131
# Dwell Time:        0.8
# Excitation Energy: 1486.61
# Binding Energy:    408
# Pass Energy:       30
# Bias Voltage:      90
# Detector Voltage:  2600
# Eff. Workfunction: 4.309
# Source:            X-Ray Dummy
# Comment:           
#
# Cycle: 0
# Number of Scans: 8
#
# Cycle: 0, Curve: 0
# Acquisition Date: 12/15/21 17:15:36 UTC
#
# ColumnLabels: energy counts/s
#
408  1124.2188
407.9  1115.3125
407.8  1120.625
407.7  1083.125
407.6  1108.5938
407.5  1086.875
407.4  1115.7813
407.3  1098.4375
407.2  1132.1875
407.1  1104.6875
407  1127.5
406.9  1123.2813
406.8  1114.0625
406.7  1130.3125
406.6  1130.1563
406.5  1103.5938
406.4  1110.625
406.3  1116.0938
406.2  1113.125
406.1  1118.75
406  1127.9688
405.9  1113.75
405.8  1122.3438
405.7  1149.5313
405.6  1132.0313
405.5  1123.75
405.4  1146.875
405.3  1127.1875
405.2  1122.1875
405.1  1111.875
405  1145.4688
404.9  1126.4063
404.8  1133.9063
404.7  1142.5
404.6  1144.5313
404.5  1141.0938
404.4  1134.8438
404.3  1158.4375
404.2  1152.6563
404.1  1161.4063
404  1163.2813
403.9  1190.4688
403.8  1179.8438
403.7  1180.1563
403.6  1178.5938
403.5  1189.8438
403.4  1213.2813
403.3  1220.1563
403.2  1210.4688
403.1  1237.9688
403  1218.2813
402.9  1226.7188
402.8  1258.125
402.7  1252.1875
402.6  1254.0625
402.5  1242.1875
402.4  1307.9688
402.3  1269.5313
402.2  1278.4375
402.1  1272.5
402  1290.4688
401.9  1300.625
401.8  1279.0625
401.7  1308.4375
401.6  1312.0313
401.5  1284.375
401.4  1295.1563
401.3  1257.0313
401.2  1284.8438
401.1  1262.0313
401  1283.2813
400.9  1254.2188
400.8  1285
400.7  1244.5313
400.6  1240.9375
400.5  1245.4688
400.4  1221.5625
400.3  1238.2813
400.2  1212.1875
400.1  1196.875
400  1152.8125
399.9  1177.6563
399.8  1175.9375
399.7  1165.1563
399.6  1170.4688
399.5  1134.6875
399.4  1159.2188
399.3  1131.875
399.2  1109.5313
399.1  1112.8125
399  1115
398.9  1108.75
398.8  1101.4063
398.7  1119.6875
398.6  1070.3125
398.5  1111.7188
398.4  1100
398.3  1102.3438
398.2  1093.75
398.1  1070.4688
398  1087.5
397.9  1085
397.8  1084.0625
397.7  1074.375
397.6  1087.0313
397.5  1075.3125
397.4  1093.9063
397.3  1080.4688
397.2  1122.1875
397.1  1076.0938
397  1091.0938
396.9  1077.9688
396.8  1064.2188
396.7  1080.7813
396.6  1080.4688
396.5  1095
396.4  1094.8438
396.3  1085.3125
396.2  1073.2813
396.1  1076.875
396  1071.0938
395.9  1076.5625
395.8  1086.4063
395.7  1071.5625
395.6  1089.375
395.5  1077.6563
395.4  1057.3438
395.3  1073.5938
395.2  1038.9063
395.1  1089.2188
395  1076.7188

# Region:            overview
# Acquisition Date:  12/15/21 16:47:36 UTC
# Analysis Method:   XPS
# Analyzer:          Phoibos 100 R6
# Analyzer Lens:     LargeArea:1.5kV
# Analyzer Slit:     1:0.2x20\B:open
# Scan Mode:         FixedAnalyzerTransmission
# Curves/Scan:       1
# Values/Curve:      1205
# Dwell Time:        0.2
# Excitation Energy: 1486.61
# Binding Energy:    1200
# Pass Energy:       50
# Bias Voltage:      90
# Detector Voltage:  2600
# Eff. Workfunction: 4.309
# Source:            X-Ray Dummy
# Comment:           
#
# Cycle: 0
# Number of Scans: 1
#
# Cycle: 0, Curve: 0
# Acquisition Date: 12/15/21 16:47:36 UTC
#
# ColumnLabels: energy counts/s
#
1200  9425
1199  9230
1198  9450
1197  9030
1196  9315
1195  8945
1194  9175
1193  8945
1192  9430
1191  8865
1190  8835
1189  9275
1188  9230
1187  9150
1186  9120
1185  8770
1184  9215
1183  9120
1182  9505
1181  9415
1180  9285
1179  9065
1178  9270
1177  9190
1176  8860
1175  8975
1174  9000
1173  8980
1172  9250
1171  9100
1170  9325
1169  8950
1168  8760
1167  8735
1166  9050
1165  8915
1164  9260
1163  9350
1162  8960
1161  8950
1160  9050
1159  9020
1158  9125
1157  9110
1156  8750
1155  8950
1154  9155
1153  8965
1152  8915
1151  9385
1150  9115
1149  8735
1148  8765
1147  9180
1146  9145
1145  8940
1144  8955
1143  9170
1142  9125
1141  9125
1140  8775
1139  9060
1138  9340
1137  9285
1136  8805
1135  9000
1134  8790
1133  8975
1132  9355
1131  8725
1130  8920
1129  8920
1128  9040
1127  9230
1126  8835
1125  9035
1124  8905
1123  9305
1122  8940
1121  9090
1120  9060
1119  8980
1118  8840
1117  9080
1116  8470
1115  8885
1114  9555
1113  8695
1112  8870
1111  8945
1110  9015
1109  8860
1108  8960
1107  9305
1106  9120
1105  8870
1104  9005
1103  8770
1102  8895
1101  9270
1100  8830
1099  8710
1098  9125
1097  9370
1096  8930
1095  8695
1094  9300
1093  9325
1092  9375
1091  8795
1090  9135
1089  8805
1088  8745
1087  9480
1086  9175
1085  9035
1084  9385
1083  8885
1082  8850
1081  9130
1080  9050
1079  8955
1078  9330
1077  8825
1076  9000
1075  9005
1074  8775
1073  8720
1072  8985
1071  8970
1070  9275
1069  9075
1068  9315
1067  8625
1066  9495
1065  8780
1064  8950
1063  8855
1062  9090
1061  9300
1060  9185
1059  9055
1058  9035
1057  8945
1056  9460
1055  8510
1054  9200
1053  9245
1052  8525
1051  9545
1050  9185
1049  9140
1048  9290
1047  9180
1046  9120
1045  9325
1044  9235
1043  9240
1042  8940
1041  9170
1040  9020
1039  9335
1038  9510
1037  9435
1036  8675
1035  9390
1034  9130
1033  9330
1032  9225
1031  9150
1030  9145
1029  8965
1028  9220
1027  9215
1026  8490
1025  9135
1024  9310
1023  8730
1022  9250
1021  9095
1020  9285
1019  9355
1018  9360
1017  9130
1016  8655
1015  9670
1014  8885
1013  8715
1012  9005
1011  8700
1010  8810
1009  9155
1008  9310
1007  9715
1006  9490
1005  9440
1004  9520
1003  9590
1002  9440
1001  8955
1000  8805
999  9225
998  8950
997  8795
996  8865
995  8570
994  8440
993  8640
992  8270
991  8585
990  8365
989  8305
988  8450
987  8765
986  8720
985  9195
984  9370
983  9645
982  9950
981  9805
980  9525
979  9215
978  8720
977  8880
976  8045
975  8160
974  7845
973  7730
972  7695
971  7070
970  6965
969  6975
968  6970
967  6815
966  7150
965  6690
964  6580
963  6800
962  6735
961  6615
960  6680
959  6585
958  6525
957  6445
956  6590
955  6590
954  6755
953  6635
952  6870
951  7220
950  6660
949  6770
948  6500
947  6475
946  6750
945  6815
944  6595
943  6750
942  6435
941  6615
940  6805
939  6730
938  6720
937  6635
936  7055
935  6670
934  6635
933  6455
932  6880
931  6730
930  6875
929  6930
928  6790
927  6930
926  7155
925  6570
924  6525
923  6680
922  6955
921  6420
920  6925
919  6615
918  6760
917  6735
916  6645
915  6860
914  6310
913  6885
912  6730
911  6575
910  6925
909  6755
908  6710
907  6635
906  6880
905  6780
904  6700
903  6610
902  6425
901  6640
900  6750
899  6895
898  6750
897  6860
896  6815
895  6860
894  6790
893  6490
892  6815
891  7015
890  6810
889  6730
888  7095
887  6830
886  6945
885  6595
884  6930
883  6815
882  6445
881  6960
880  7085
879  6480
878  6890
877  6555
876  6530
875  6685
874  6695
873  6725
872  6555
871  6595
870  6935
869  6760
868  6880
867  6640
866  6490
865  6835
864  6925
863  6370
862  6620
861  6950
860  6940
859  6415
858  6630
857  6840
856  6720
855  6870
854  6695
853  6690
852  6730
851  6935
850  6810
849  6655
848  6800
847  6805
846  6945
845  6695
844  6815
843  6860
842  7155
841  6935
840  6855
839  7100
838  6895
837  6805
836  6745
835  6750
834  7250
833  6655
832  7060
831  6820
830  6885
829  6725
828  7005
827  6895
826  6590
825  7150
824  7030
823  6675
822  6760
821  7035
820  6470
819  6770
818  6635
817  6545
816  6845
815  7085
814  6745
813  6790
812  6800
811  6540
810  7005
809  6710
808  6740
807  6620
806  6990
805  6925
804  6845
803  6995
802  6760
801  6855
800  6560
799  6850
798  6630
797  6645
796  7015
795  6980
794  6975
793  7085
792  7045
791  6770
790  6930
789  6690
788  6975
787  6655
786  6900
785  6825
784  6770
783  6885
782  7120
781  7405
780  6850
779  6570
778  6835
777  6930
776  6745
775  6725
774  6870
773  6925
772  6930
771  6860
770  7005
769  6770
768  7120
767  6825
766  7105
765  7130
764  6905
763  6925
762  6965
761  6850
760  7095
759  6715
758  6730
757  6890
756  7185
755  7090
754  6940
753  6940
752  7105
751  6880
750  6765
749  6935
748  6670
747  6980
746  6745
745  6985
744  7135
743  7060
742  7065
741  6935
740  6730
739  6745
738  6875
737  6990
736  6870
735  6980
734  6960
733  6555
732  6875
731  6810
730  7055
729  6910
728  7105
727  7060
726  6845
725  6715
724  7050
723  7000
722  7140
721  6920
720  7135
719  6790
718  7200
717  6915
716  7030
715  7095
714  7250
713  7040
712  7410
711  6715
710  7175
709  6950
708  7120
707  6925
706  7075
705  6860
704  7085
703  6875
702  7020
701  7230
700  6710
699  6735
698  7025
697  6840
696  7185
695  7030
694  6935
693  7005
692  6995
691  7485
690  7150
689  6890
688  7105
687  7165
686  7220
685  6990
684  6710
683  6830
682  7205
681  7055
680  7185
679  7215
678  7420
677  7255
676  7215
675  7100
674  7170
673  6930
672  7740
671  7170
670  7110
669  7055
668  7040
667  7200
666  6905
665  7005
664  7160
663  6985
662  7385
661  7370
660  7120
659  6930
658  7100
657  7415
656  7480
655  7075
654  7205
653  7070
652  6835
651  7270
650  7225
649  6680
648  7065
647  7165
646  7460
645  7160
644  7315
643  7130
642  7325
641  7155
640  7090
639  7475
638  7165
637  7230
636  7555
635  7265
634  7220
633  7330
632  7225
631  7270
630  7295
629  6900
628  7360
627  7175
626  7550
625  7375
624  7515
623  7530
622  7735
621  7545
620  7335
619  7470
618  7435
617  7075
616  7270
615  7525
614  7530
613  7360
612  7315
611  7230
610  7375
609  7380
608  7165
607  7530
606  7635
605  7340
604  7320
603  7535
602  7200
601  7350
600  7115
599  7190
598  7285
597  7270
596  7505
595  7100
594  7455
593  7230
592  7645
591  7560
590  7175
589  7620
588  7600
587  7315
586  7545
585  7295
584  7620
583  7475
582  7315
581  7650
580  7250
579  7290
578  7285
577  7140
576  7555
575  7115
574  7200
573  7060
572  7210
571  7260
570  7230
569  6785
568  6905
567  6880
566  7040
565  7335
564  7315
563  7395
562  7940
561  7885
560  7970
559  7555
558  7605
557  7915
556  7590
555  7375
554  7150
553  6765
552  6865
551  6725
550  6380
549  6380
548  5855
547  5795
546  5585
545  5440
544  5115
543  5065
542  5030
541  4995
540  4955
539  5285
538  5855
537  9740
536  16170
535  20085
534  14635
533  7675
532  5250
531  5000
530  4605
529  4270
528  4665
527  4475
526  5435
525  5625
524  5140
523  5345
522  4500
521  4470
520  4625
519  4195
518  3825
517  3985
516  3885
515  3985
514  4250
513  4110
512  4325
511  3990
510  3780
509  3850
508  4230
507  4030
506  3835
505  4075
504  4150
503  3865
502  4240
501  4125
500  3845
499  4040
498  3910
497  3890
496  4045
495  4085
494  3810
493  3925
492  4025
491  3990
490  4075
489  4020
488  4115
487  3940
486  3555
485  4175
484  3895
483  3770
482  3915
481  3760
480  3985
479  4070
478  3830
477  3790
476  3760
475  3810
474  3760
473  3785
472  3860
471  3830
470  3860
469  3940
468  3790
467  3800
466  4345
465  3975
464  4035
463  3895
462  4065
461  4155
460  3865
459  3775
458  3650
457  3645
456  3715
455  3655
454  3460
453  3820
452  3855
451  3640
450  3565
449  3495
448  3745
447  3755
446  3605
445  3570
444  4065
443  3555
442  3695
441  3830
440  3695
439  3660
438  3565
437  3910
436  3600
435  3775
434  3375
433  3620
432  3570
431  3625
430  3905
429  3780
428  3595
427  3660
426  3660
425  3655
424  3490
423  3540
422  3245
421  3615
420  3825
419  3810
418  3585
417  4025
416  3465
415  3665
414  3485
413  3475
412  3425
411  3610
410  3690
409  3725
408  3880
407  3595
406  3755
405  3610
404  3815
403  3950
402  4345
401  4405
400  3930
399  3610
398  3675
397  3615
396  3485
395  3655
394  3280
393  3575
392  3540
391  3425
390  3410
389  3365
388  3355
387  3315
386  3290
385  3405
384  3490
383  3105
382  3150
381  3210
380  3425
379  3245
378  3175
377  3325
376  3295
375  3270
374  3505
373  3245
372  3245
371  3370
370  3430
369  2990
368  3435
367  3245
366  3315
365  3510
364  3350
363  3170
362  3330
361  3410
360  3580
359  3450
358  3345
357  3385
356  3145
355  3290
354  3320
353  3425
352  3595
351  3200
350  3370
349  3370
348  3350
347  3565
346  3340
345  3345
344  3210
343  3480
342  3580
341  3380
340  3460
339  3360
338  3420
337  3625
336  3510
335  3585
334  3370
333  3350
332  3030
331  3455
330  3310
329  3525
328  3250
327  3485
326  3405
325  3315
324  3470
323  3400
322  3525
321  3315
320  3490
319  3315
318  3515
317  3535
316  3585
315  3385
314  3395
313  3520
312  3410
311  3565
310  3470
309  3475
308  3465
307  3355
306  3370
305  3575
304  3165
303  3495
302  3140
301  3345
300  3385
299  3445
298  3375
297  3430
296  3600
295  3440
294  3405
293  3380
292  3480
291  3620
290  4215
289  5020
288  5685
287  6105
286  4855
285  3500
284  3375
283  3210
282  3335
281  3405
280  3430
279  3335
278  3310
277  3180
276  3360
275  3330
274  2930
273  2980
272  3005
271  3150
270  3045
269  2860
268  3130
267  3070
266  3070
265  3185
264  3215
263  3150
262  3000
261  3165
260  3070
259  3120
258  3050
257  3095
256  3145
255  3175
254  2865
253  2955
252  3040
251  2950
250  3125
249  3100
248  2985
247  3075
246  3115
245  3220
244  3090
243  3075
242  3100
241  3355
240  3230
239  3015
238  3210
237  3025
236  3070
235  2870
234  3025
233  3055
232  3080
231  3065
230  3130
229  3330
228  3170
227  2975
226  2995
225  2900
224  2805
223  2550
222  2510
221  2585
220  2470
219  2760
218  2520
217  2530
216  2555
215  2630
214  2400
213  2300
212  2530
211  2400
210  2605
209  2310
208  2340
207  2375
206  2145
205  2350
204  2640
203  2450
202  2420
201  2560
200  2575
199  2540
198  2405
197  2365
196  2575
195  2465
194  2260
193  2355
192  2305
191  2525
190  2340
189  2410
188  2290
187  2575
186  2535
185  2310
184  2445
183  2525
182  2535
181  2440
180  2390
179  2345
178  2645
177  2425
176  2710
175  2255
174  2420
173  2245
172  2565
171  2010
170  2135
169  2250
168  2155
167  2140
166  2070
165  2210
164  1965
163  1945
162  2335
161  2065
160  2300
159  3005
158  3815
157  4250
156  3770
155  3105
154  2285
153  2150
152  2095
151  2255
150  2010
149  2135
148  2035
147  2060
146  2145
145  1995
144  2050
143  1945
142  1945
141  1800
140  1955
139  2065
138  1875
137  1940
136  2070
135  1850
134  1965
133  2025
132  1995
131  1965
130  1960
129  1935
128  1980
127  1995
126  1815
125  1835
124  1870
123  1690
122  1950
121  1655
120  1695
119  1765
118  1680
117  1565
116  1790
115  1600
114  1680
113  1640
112  1640
111  1760
110  1535
109  1790
108  2240
107  2985
106  3650
105  3540
104  2205
103  1785
102  1590
101  1395
100  1630
99  1585
98  1545
97  1645
96  1680
95  1450
94  1600
93  1525
92  1575
91  1440
90  1540
89  1565
88  1420
87  1525
86  1560
85  1540
84  1620
83  1585
82  1465
81  1550
80  1485
79  1380
78  1375
77  1500
76  1520
75  1600
74  1555
73  1425
72  1400
71  1500
70  1380
69  1525
68  1540
67  1485
66  1390
65  1395
64  1455
63  1495
62  1485
61  1560
60  1435
59  1470
58  1440
57  1400
56  1505
55  1490
54  1505
53  1610
52  1560
51  1455
50  1545
49  1635
48  1510
47  1465
46  1400
45  1535
44  1505
43  1525
42  1530
41  1480
40  1390
39  1250
38  1325
37  1500
36  1360
35  1425
34  1440
33  1400
32  1415
31  1545
30  1645
29  1740
28  1870
27  1840
26  2005
25  1865
24  1620
23  1780
22  1470
21  1190
20  1125
19  1135
18  1160
17  1345
16  1245
15  1250
14  1250
13  1195
12  1110
11  1075
10  1005
9  1070
8  1060
7  1045
6  1070
5  935
4  890
3  1045
2  870
1  1085
-2.2737368e-013  1015
-1  970
-2  880
-3  965
-4  810

# Region:            Si2p
# Acquisition Date:  12/15/21 16:57:18 UTC
# Analysis Method:   XPS
# Analyzer:          Phoibos 100 R6
# Analyzer Lens:     LargeArea:1.5kV
# Analyzer Slit:     1:0.2x20\B:open
# Scan Mode:         FixedAnalyzerTransmission
# Curves/Scan:       1
# Values/Curve:      141
# Dwell Time:        0.8
# Excitation Energy: 1486.61
# Binding Energy:    112
# Pass Energy:       30
# Bias Voltage:      90
# Detector Voltage:  2600
# Eff. Workfunction: 4.309
# Source:            X-Ray Dummy
# Comment:           
#
# Cycle: 0
# Number of Scans: 2
#
# Cycle: 0, Curve: 0
# Acquisition Date: 12/15/21 16:57:18 UTC
#
# ColumnLabels: energy counts/s
#
112  561.875
111.9  529.375
111.8  545.625
111.7  566.25
111.6  548.75
111.5  568.125
111.4  548.125
111.3  586.875
111.2  537.5
111.1  555
111  561.25
110.9  543.75
110.8  563.125
110.7  516.875
110.6  576.25
110.5  575.625
110.4  556.25
110.3  576.875
110.2  586.875
110.1  575.625
110  605.625
109.9  568.125
109.8  572.5
109.7  612.5
109.6  565.625
109.5  565
109.4  526.25
109.3  574.375
109.2  595
109.1  550
109  585
108.9  586.875
108.8  606.25
108.7  574.375
108.6  602.5
108.5  606.875
108.4  595.625
108.3  589.375
108.2  632.5
108.1  667.5
108  623.125
107.9  676.875
107.8  700.625
107.7  741.875
107.6  736.25
107.5  763.75
107.4  794.375
107.3  842.5
107.2  927.5
107.1  960.625
107  981.25
106.9  1040.625
106.8  1074.375
106.7  1150
106.6  1235.625
106.5  1284.375
106.4  1317.5
106.3  1324.375
106.2  1427.5
106.1  1448.125
106  1459.375
105.9  1468.75
105.8  1473.75
105.7  1493.75
105.6  1500.625
105.5  1473.125
105.4  1468.125
105.3  1453.75
105.2  1370.625
105.1  1358.125
105  1231.875
104.9  1203.125
104.8  1135
104.7  1096.875
104.6  982.5
104.5  1051.25
104.4  952.5
104.3  900
104.2  851.875
104.1  795
104  777.5
103.9  750.625
103.8  685.625
103.7  670
103.6  641.875
103.5  646.25
103.4  638.125
103.3  608.75
103.2  585
103.1  576.875
103  588.125
102.9  626.25
102.8  593.75
102.7  558.125
102.6  555
102.5  574.375
102.4  560.625
102.3  580.625
102.2  556.25
102.1  533.75
102  538.125
101.9  543.75
101.8  528.125
101.7  561.25
101.6  527.5
101.5  541.25
101.4  550
101.3  500.625
101.2  551.875
101.1  537.5
101  567.5
100.9  505.625
100.8  531.25
100.7  530
100.6  546.25
100.5  560
100.4  512.5
100.3  516.25
100.2  550.625
100.1  501.875
100  555.625
99.9  538.125
99.8  543.75
99.7  545.625
99.6  535.625
99.5  502.5
99.4  545
99.3  493.75
99.2  478.75
99.1  554.375
99  537.5
98.9  545
98.8  531.875
98.7  539.375
98.6  553.125
98.5  530
98.4  475
98.3  518.75
98.2  504.375
98.1  543.75
98  538.75

# Region:            O1s
# Acquisition Date:  12/15/21 16:59:37 UTC
# Analysis Method:   XPS
# Analyzer:          Phoibos 100 R6
# Analyzer Lens:     LargeArea:1.5kV
# Analyzer Slit:     1:0.2x20\B:open
# Scan Mode:         FixedAnalyzerTransmission
# Curves/Scan:       1
# Values/Curve:      171
# Dwell Time:        0.8
# Excitation Energy: 1486.61
# Binding Energy:    545
# Pass Energy:       30
# Bias Voltage:      90
# Detector Voltage:  2600
# Eff. Workfunction: 4.309
# Source:            X-Ray Dummy
# Comment:           
#
# Cycle: 0
# Number of Scans: 2
#
# Cycle: 0, Curve: 0
# Acquisition Date: 12/15/21 16:59:37 UTC
#
# ColumnLabels: energy counts/s
#
545  1686.875
544.9  1606.875
544.8  1643.75
544.7  1638.125
544.6  1601.25
544.5  1573.75
544.4  1563.75
544.3  1583.75
544.2  1621.25
544.1  1534.375
544  1573.125
543.9  1592.5
543.8  1588.75
543.7  1552.5
543.6  1525
543.5  1540
543.4  1455.625
543.3  1462.5
543.2  1546.25
543.1  1468.125
543  1520.625
542.9  1473.75
542.8  1495.625
542.7  1478.75
542.6  1522.5
542.5  1511.875
542.4  1518.75
542.3  1464.375
542.2  1544.375
542.1  1490.625
542  1558.75
541.9  1486.875
541.8  1491.25
541.7  1490
541.6  1475
541.5  1436.875
541.4  1470.625
541.3  1502.5
541.2  1493.75
541.1  1534.375
541  1446.875
540.9  1494.375
540.8  1475
540.7  1498.75
540.6  1500
540.5  1468.125
540.4  1483.125
540.3  1508.75
540.2  1500
540.1  1488.125
540  1423.125
539.9  1582.5
539.8  1493.75
539.7  1501.25
539.6  1543.125
539.5  1513.125
539.4  1485.625
539.3  1500
539.2  1531.875
539.1  1619.375
539  1530.625
538.9  1597.5
538.8  1536.875
538.7  1600.625
538.6  1560
538.5  1578.125
538.4  1671.875
538.3  1655.625
538.2  1681.25
538.1  1698.75
538  1705.625
537.9  1675
537.8  1790.625
537.7  1870
537.6  1974.375
537.5  1981.25
537.4  2053.75
537.3  2165.625
537.2  2268.75
537.1  2370
537  2515.625
536.9  2718.75
536.8  2901.25
536.7  3089.375
536.6  3388.125
536.5  3627.5
536.4  3943.125
536.3  4265
536.2  4605.625
536.1  4895.625
536  5350
535.9  5665
535.8  6130
535.7  6515
535.6  6835.625
535.5  7148.125
535.4  7493.75
535.3  7620.625
535.2  7715
535.1  7794.375
535  7874.375
534.9  7773.75
534.8  7796.875
534.7  7434.375
534.6  7234.375
534.5  6863.75
534.4  6659.375
534.3  6139.375
534.2  5888.75
534.1  5358.75
534  5027.5
533.9  4525.625
533.8  4115.625
533.7  3896.25
533.6  3469.375
533.5  3128.75
533.4  3010.625
533.3  2741.875
533.2  2548.125
533.1  2396.875
533  2238.75
532.9  2031.25
532.8  1942.5
532.7  1944.375
532.6  1848.125
532.5  1873.125
532.4  1721.875
532.3  1706.875
532.2  1736.25
532.1  1651.25
532  1628.125
531.9  1627.5
531.8  1583.75
531.7  1562.5
531.6  1576.25
531.5  1495
531.4  1485.625
531.3  1508.125
531.2  1500
531.1  1474.375
531  1481.25
530.9  1447.5
530.8  1470
530.7  1487.5
530.6  1425.625
530.5  1394.375
530.4  1381.25
530.3  1378.75
530.2  1373.125
530.1  1403.125
530  1361.875
529.9  1351.25
529.8  1362.5
529.7  1347.5
529.6  1370
529.5  1348.125
529.4  1326.875
529.3  1321.875
529.2  1333.75
529.1  1304.375
529  1368.75
528.9  1341.875
528.8  1295.625
528.7  1296.875
528.6  1331.25
528.5  1323.125
528.4  1310.625
528.3  1310
528.2  1291.875
528.1  1320.625
528  1321.25

