# Created by:        SpecsLab Prodigy, Version 4.60.2-r85849 
#
# XY-Serializer Export Settings:
#   Comment Prefix:           #
#   Output meta data:         yes
#   Energy Axis:              Binding Energy
#   Count Rate:               Counts per Second
#   Separate Scan Data:       no
#   Separate Channel Data:    no
#   External Channel Data:    yes
#   Transmission Function:    no
#   ErrorBar:                 no
#   Operation Results:        yes
#   Time Zone Format:         UTC
#
# Group:             Spectrum Group
#
# Region:            C1s
# Acquisition Date:  12/20/21 15:21:45 UTC
# Analysis Method:   XPS
# Analyzer:          Phoibos 100 R6
# Analyzer Lens:     LargeArea:1.5kV
# Analyzer Slit:     1:0.2x20\B:open
# Scan Mode:         FixedAnalyzerTransmission
# Curves/Scan:       1
# Values/Curve:      131
# Dwell Time:        0.8
# Excitation Energy: 1486.61
# Binding Energy:    295
# Pass Energy:       30
# Bias Voltage:      90
# Detector Voltage:  2600
# Eff. Workfunction: 4.309
# Source:            X-Ray Dummy
# Comment:           
#
# Cycle: 0
# Number of Scans: 6
#
# Cycle: 0, Curve: 0
# Acquisition Date: 12/20/21 15:21:45 UTC
#
# ColumnLabels: energy counts/s
#
295  1025.8333
294.9  1014.1667
294.8  1023.3333
294.7  1027.0833
294.6  1047.0833
294.5  1024.5833
294.4  1012.5
294.3  1017.2917
294.2  1011.4583
294.1  1004.375
294  1030.2083
293.9  1020
293.8  1012.9167
293.7  1026.875
293.6  1014.1667
293.5  1013.9583
293.4  1016.6667
293.3  1047.5
293.2  1037.5
293.1  1038.3333
293  1024.1667
292.9  1041.0417
292.8  1042.5
292.7  1029.1667
292.6  1018.9583
292.5  1036.25
292.4  1043.75
292.3  1040.8333
292.2  1056.0417
292.1  1016.875
292  1041.875
291.9  1075.4167
291.8  1051.0417
291.7  1042.5
291.6  1055
291.5  1050
291.4  1053.3333
291.3  1060.4167
291.2  1066.0417
291.1  1075
291  1110.2083
290.9  1066.0417
290.8  1075.8333
290.7  1110.8333
290.6  1128.9583
290.5  1152.9167
290.4  1149.1667
290.3  1183.5417
290.2  1207.9167
290.1  1205.2083
290  1269.1667
289.9  1275
289.8  1307.2917
289.7  1358.5417
289.6  1373.9583
289.5  1425.625
289.4  1502.7083
289.3  1528.75
289.2  1576.0417
289.1  1630
289  1671.4583
288.9  1707.9167
288.8  1742.7083
288.7  1772.2917
288.6  1798.125
288.5  1821.4583
288.4  1898.75
288.3  1919.7917
288.2  1915.625
288.1  1911.875
288  1903.75
287.9  1921.875
287.8  1937.7083
287.7  1922.7083
287.6  1954.1667
287.5  1979.375
287.4  1925.8333
287.3  1966.4583
287.2  1965
287.1  1954.375
287  1926.4583
286.9  1888.125
286.8  1899.5833
286.7  1875.4167
286.6  1796.6667
286.5  1781.4583
286.4  1774.375
286.3  1719.7917
286.2  1665
286.1  1599.7917
286  1568.5417
285.9  1562.9167
285.8  1502.0833
285.7  1515.625
285.6  1423.75
285.5  1403.75
285.4  1371.4583
285.3  1350.8333
285.2  1333.9583
285.1  1281.0417
285  1268.9583
284.9  1244.5833
284.8  1220.2083
284.7  1173.5417
284.6  1183.3333
284.5  1126.4583
284.4  1127.2917
284.3  1102.5
284.2  1054.5833
284.1  1065
284  1032.9167
283.9  1017.7083
283.8  975.625
283.7  1011.875
283.6  945
283.5  952.91667
283.4  961.45833
283.3  928.33333
283.2  938.33333
283.1  932.29167
283  936.66667
282.9  943.75
282.8  941.25
282.7  914.58333
282.6  922.70833
282.5  900.20833
282.4  940.625
282.3  954.79167
282.2  935.41667
282.1  911.25
282  911.875

# Region:            Si2p
# Acquisition Date:  12/20/21 15:14:38 UTC
# Analysis Method:   XPS
# Analyzer:          Phoibos 100 R6
# Analyzer Lens:     LargeArea:1.5kV
# Analyzer Slit:     1:0.2x20\B:open
# Scan Mode:         FixedAnalyzerTransmission
# Curves/Scan:       1
# Values/Curve:      141
# Dwell Time:        0.8
# Excitation Energy: 1486.61
# Binding Energy:    112
# Pass Energy:       30
# Bias Voltage:      90
# Detector Voltage:  2600
# Eff. Workfunction: 4.309
# Source:            X-Ray Dummy
# Comment:           
#
# Cycle: 0
# Number of Scans: 4
#
# Cycle: 0, Curve: 0
# Acquisition Date: 12/20/21 15:14:38 UTC
#
# ColumnLabels: energy counts/s
#
112  520
111.9  533.4375
111.8  511.875
111.7  502.8125
111.6  510.625
111.5  519.0625
111.4  520.3125
111.3  525.9375
111.2  514.375
111.1  511.25
111  528.75
110.9  552.8125
110.8  508.4375
110.7  535.625
110.6  516.875
110.5  565.625
110.4  515.9375
110.3  528.4375
110.2  511.5625
110.1  533.75
110  538.4375
109.9  554.375
109.8  525.9375
109.7  520.3125
109.6  529.6875
109.5  523.125
109.4  526.5625
109.3  537.8125
109.2  549.375
109.1  527.1875
109  513.75
108.9  511.25
108.8  551.25
108.7  551.25
108.6  535
108.5  553.4375
108.4  560.625
108.3  585
108.2  588.75
108.1  620.3125
108  614.0625
107.9  645
107.8  657.5
107.7  660
107.6  711.5625
107.5  717.8125
107.4  775
107.3  817.5
107.2  866.5625
107.1  896.5625
107  968.75
106.9  1016.875
106.8  1047.5
106.7  1107.1875
106.6  1191.875
106.5  1195
106.4  1304.6875
106.3  1304.0625
106.2  1368.125
106.1  1376.875
106  1421.875
105.9  1412.5
105.8  1439.0625
105.7  1425
105.6  1454.6875
105.5  1359.0625
105.4  1352.1875
105.3  1311.5625
105.2  1230.625
105.1  1175.9375
105  1103.75
104.9  1078.125
104.8  1017.8125
104.7  979.6875
104.6  907.8125
104.5  826.5625
104.4  803.75
104.3  772.8125
104.2  723.75
104.1  702.8125
104  670.9375
103.9  648.4375
103.8  593.4375
103.7  615.9375
103.6  611.875
103.5  585.3125
103.4  550
103.3  536.25
103.2  529.375
103.1  535.3125
103  544.375
102.9  512.5
102.8  544.6875
102.7  531.5625
102.6  498.4375
102.5  523.75
102.4  504.6875
102.3  510.3125
102.2  495
102.1  492.1875
102  509.6875
101.9  524.0625
101.8  509.6875
101.7  513.125
101.6  487.5
101.5  498.125
101.4  479.0625
101.3  491.5625
101.2  481.875
101.1  480.9375
101  481.25
100.9  503.125
100.8  475
100.7  495
100.6  515
100.5  478.75
100.4  490.3125
100.3  501.25
100.2  503.4375
100.1  506.5625
100  514.6875
99.9  498.4375
99.8  496.25
99.7  494.375
99.6  476.875
99.5  504.6875
99.4  496.875
99.3  483.4375
99.2  499.6875
99.1  484.0625
99  492.8125
98.9  507.5
98.8  487.1875
98.7  487.1875
98.6  499.6875
98.5  475.3125
98.4  476.25
98.3  495.625
98.2  479.0625
98.1  490.9375
98  506.25

# Region:            N1s
# Acquisition Date:  12/20/21 15:27:05 UTC
# Analysis Method:   XPS
# Analyzer:          Phoibos 100 R6
# Analyzer Lens:     LargeArea:1.5kV
# Analyzer Slit:     1:0.2x20\B:open
# Scan Mode:         FixedAnalyzerTransmission
# Curves/Scan:       1
# Values/Curve:      131
# Dwell Time:        0.8
# Excitation Energy: 1486.61
# Binding Energy:    408
# Pass Energy:       30
# Bias Voltage:      90
# Detector Voltage:  2600
# Eff. Workfunction: 4.309
# Source:            X-Ray Dummy
# Comment:           
#
# Cycle: 0
# Number of Scans: 8
#
# Cycle: 0, Curve: 0
# Acquisition Date: 12/20/21 15:27:05 UTC
#
# ColumnLabels: energy counts/s
#
408  1054.0625
407.9  1066.7188
407.8  1072.8125
407.7  1063.2813
407.6  1052.8125
407.5  1055.7813
407.4  1035.1563
407.3  1067.3438
407.2  1071.4063
407.1  1041.0938
407  1063.2813
406.9  1043.9063
406.8  1038.2813
406.7  1072.6563
406.6  1085.1563
406.5  1072.6563
406.4  1074.2188
406.3  1052.0313
406.2  1052.0313
406.1  1069.375
406  1036.5625
405.9  1048.2813
405.8  1067.1875
405.7  1058.75
405.6  1030.7813
405.5  1051.5625
405.4  1081.7188
405.3  1049.0625
405.2  1094.0625
405.1  1066.5625
405  1084.0625
404.9  1093.75
404.8  1054.8438
404.7  1056.5625
404.6  1075.7813
404.5  1093.4375
404.4  1082.8125
404.3  1089.375
404.2  1082.0313
404.1  1093.125
404  1115.3125
403.9  1115.625
403.8  1142.3438
403.7  1130.9375
403.6  1123.2813
403.5  1141.7188
403.4  1153.4375
403.3  1143.75
403.2  1160.4688
403.1  1199.6875
403  1219.375
402.9  1200.4688
402.8  1195.1563
402.7  1225.3125
402.6  1205.9375
402.5  1195.7813
402.4  1194.5313
402.3  1210.7813
402.2  1233.9063
402.1  1204.6875
402  1212.9688
401.9  1241.875
401.8  1225.3125
401.7  1231.0938
401.6  1240.7813
401.5  1220.3125
401.4  1229.6875
401.3  1244.2188
401.2  1251.4063
401.1  1228.2813
401  1222.8125
400.9  1222.9688
400.8  1232.5
400.7  1205.4688
400.6  1159.5313
400.5  1161.4063
400.4  1167.9688
400.3  1133.75
400.2  1130.1563
400.1  1160
400  1152.6563
399.9  1142.6563
399.8  1114.5313
399.7  1096.875
399.6  1091.4063
399.5  1112.3438
399.4  1103.9063
399.3  1057.0313
399.2  1067.6563
399.1  1070.7813
399  1070.7813
398.9  1081.0938
398.8  1084.375
398.7  1056.4063
398.6  1080
398.5  1045.7813
398.4  1054.375
398.3  1050.4688
398.2  1053.125
398.1  1045
398  1041.7188
397.9  1035.1563
397.8  1060.4688
397.7  1042.1875
397.6  1050
397.5  1037.5
397.4  1054.8438
397.3  1062.6563
397.2  1056.875
397.1  1022.3438
397  1027.0313
396.9  1033.9063
396.8  1019.6875
396.7  1031.7188
396.6  1044.8438
396.5  1039.2188
396.4  1039.375
396.3  1036.5625
396.2  1038.5938
396.1  1036.0938
396  1003.75
395.9  1037.3438
395.8  1017.9688
395.7  1022.9688
395.6  1054.5313
395.5  1023.9063
395.4  1046.4063
395.3  1031.5625
395.2  1026.7188
395.1  1038.4375
395  1011.7188

# Region:            overview
# Acquisition Date:  12/20/21 14:54:35 UTC
# Analysis Method:   XPS
# Analyzer:          Phoibos 100 R6
# Analyzer Lens:     LargeArea:1.5kV
# Analyzer Slit:     1:0.2x20\B:open
# Scan Mode:         FixedAnalyzerTransmission
# Curves/Scan:       1
# Values/Curve:      1205
# Dwell Time:        0.2
# Excitation Energy: 1486.61
# Binding Energy:    1200
# Pass Energy:       50
# Bias Voltage:      90
# Detector Voltage:  2600
# Eff. Workfunction: 4.309
# Source:            X-Ray Dummy
# Comment:           
#
# Cycle: 0
# Number of Scans: 1
#
# Cycle: 0, Curve: 0
# Acquisition Date: 12/20/21 14:54:35 UTC
#
# ColumnLabels: energy counts/s
#
1200  8350
1199  8215
1198  7895
1197  8290
1196  8050
1195  8305
1194  8090
1193  8365
1192  8370
1191  8095
1190  8220
1189  8180
1188  8025
1187  8100
1186  8030
1185  8370
1184  8220
1183  8205
1182  7895
1181  7975
1180  7875
1179  8275
1178  7975
1177  8270
1176  7995
1175  8135
1174  7875
1173  8235
1172  7775
1171  8100
1170  8245
1169  7940
1168  8140
1167  8060
1166  8490
1165  7925
1164  8390
1163  8160
1162  8615
1161  8310
1160  8240
1159  8005
1158  8200
1157  8170
1156  8440
1155  8370
1154  8095
1153  8115
1152  8200
1151  8135
1150  8515
1149  8140
1148  8085
1147  8055
1146  7785
1145  8245
1144  8110
1143  8245
1142  7990
1141  7735
1140  8575
1139  7930
1138  7990
1137  8275
1136  8335
1135  8335
1134  8385
1133  8190
1132  7915
1131  8360
1130  8380
1129  8455
1128  8180
1127  8260
1126  8220
1125  8095
1124  8290
1123  8335
1122  7680
1121  8175
1120  8155
1119  8450
1118  8205
1117  8400
1116  8525
1115  8495
1114  8225
1113  8320
1112  8290
1111  8565
1110  8270
1109  8325
1108  8190
1107  8235
1106  8155
1105  7985
1104  8310
1103  8390
1102  7955
1101  8470
1100  8125
1099  7915
1098  8105
1097  8175
1096  8105
1095  8125
1094  8280
1093  7910
1092  7820
1091  8185
1090  8310
1089  8565
1088  8100
1087  8140
1086  8255
1085  8395
1084  8145
1083  8095
1082  8330
1081  8010
1080  8405
1079  8270
1078  8320
1077  7820
1076  8180
1075  8220
1074  8520
1073  8295
1072  8260
1071  8315
1070  8020
1069  8145
1068  8145
1067  8550
1066  8495
1065  8240
1064  8450
1063  8080
1062  8135
1061  8490
1060  8215
1059  8145
1058  8075
1057  8220
1056  8270
1055  8455
1054  8250
1053  8230
1052  8460
1051  8010
1050  7920
1049  8105
1048  8395
1047  8350
1046  8315
1045  8105
1044  8240
1043  8050
1042  8160
1041  8575
1040  8125
1039  8375
1038  8330
1037  8700
1036  8605
1035  8695
1034  8725
1033  8255
1032  8645
1031  8535
1030  8370
1029  8555
1028  8390
1027  8295
1026  8235
1025  8280
1024  8575
1023  8380
1022  8600
1021  8585
1020  8405
1019  8255
1018  8675
1017  8405
1016  8445
1015  8295
1014  8225
1013  8375
1012  8430
1011  8345
1010  8490
1009  8370
1008  8395
1007  8205
1006  8605
1005  8910
1004  8445
1003  8710
1002  8620
1001  8730
1000  8290
999  8130
998  8075
997  8250
996  8215
995  7665
994  7885
993  7630
992  7715
991  8015
990  7595
989  7610
988  7660
987  7855
986  8090
985  8600
984  8960
983  9140
982  9080
981  9035
980  8445
979  8420
978  8305
977  7485
976  7660
975  7575
974  7395
973  6870
972  6915
971  6910
970  6550
969  6385
968  6100
967  6510
966  6220
965  6115
964  6235
963  6320
962  6045
961  6640
960  6300
959  6350
958  6545
957  6165
956  6265
955  6215
954  6610
953  5970
952  5995
951  6275
950  5970
949  6085
948  6595
947  6495
946  6385
945  6175
944  5830
943  6090
942  5925
941  6170
940  6200
939  6270
938  6330
937  6345
936  6415
935  6115
934  6530
933  6215
932  5940
931  6310
930  6145
929  6595
928  6275
927  6530
926  6440
925  6380
924  6580
923  6410
922  6570
921  6370
920  6355
919  6120
918  6125
917  6420
916  6215
915  6275
914  6360
913  5880
912  6305
911  6415
910  6185
909  6405
908  6125
907  6315
906  6285
905  6275
904  6290
903  6580
902  6530
901  6145
900  6565
899  6415
898  6540
897  6475
896  6440
895  6240
894  6545
893  6385
892  6580
891  6305
890  6275
889  6345
888  6225
887  6565
886  6415
885  6435
884  6120
883  6250
882  6395
881  6665
880  6510
879  6480
878  5940
877  6685
876  6390
875  6635
874  6405
873  6440
872  6360
871  6420
870  6580
869  6235
868  6445
867  6380
866  6845
865  6870
864  6135
863  6235
862  6730
861  6375
860  6360
859  6350
858  6390
857  6495
856  6120
855  6210
854  6195
853  6295
852  6475
851  6320
850  6135
849  6395
848  6760
847  6510
846  6425
845  6420
844  6395
843  6420
842  6200
841  6000
840  6455
839  6670
838  6410
837  6435
836  6435
835  6485
834  6460
833  6500
832  6250
831  6320
830  6505
829  6195
828  6480
827  6535
826  6380
825  6120
824  6545
823  6265
822  6180
821  6270
820  6355
819  6370
818  6575
817  6255
816  6025
815  6405
814  6335
813  6455
812  6735
811  6555
810  6500
809  6275
808  6265
807  6635
806  6370
805  6360
804  6625
803  6555
802  6345
801  6665
800  6810
799  6435
798  6625
797  6810
796  6665
795  6485
794  6350
793  6240
792  6260
791  6125
790  6695
789  6365
788  6720
787  6490
786  6615
785  6660
784  6955
783  6750
782  6430
781  6635
780  6700
779  6535
778  6785
777  6690
776  6785
775  6685
774  6425
773  6495
772  6230
771  6640
770  6515
769  6915
768  6295
767  6885
766  6475
765  6540
764  6360
763  6450
762  6630
761  6490
760  6585
759  6455
758  6470
757  6650
756  6500
755  6775
754  6650
753  6605
752  6600
751  6785
750  6865
749  6680
748  6645
747  6800
746  6735
745  6265
744  6895
743  6710
742  6355
741  6495
740  6740
739  6545
738  6900
737  6710
736  6380
735  6705
734  6540
733  6830
732  6585
731  6760
730  6780
729  6690
728  6490
727  6480
726  6900
725  6395
724  6640
723  6865
722  6870
721  6715
720  6470
719  6965
718  6525
717  6865
716  6765
715  7040
714  6960
713  6325
712  7090
711  6820
710  6820
709  6795
708  6895
707  6590
706  6485
705  6620
704  6770
703  6810
702  6785
701  6495
700  6530
699  6565
698  6735
697  6770
696  6760
695  6910
694  6970
693  6750
692  6970
691  6700
690  6535
689  6990
688  6765
687  6335
686  7105
685  7090
684  6735
683  6935
682  6940
681  7035
680  6655
679  6930
678  6965
677  6695
676  6925
675  6515
674  6590
673  6760
672  6835
671  6775
670  6960
669  7450
668  6660
667  6830
666  6915
665  6600
664  7095
663  6860
662  6925
661  6655
660  6895
659  6870
658  7020
657  6650
656  6700
655  6670
654  6565
653  6720
652  7180
651  6750
650  6765
649  6885
648  6910
647  6740
646  7005
645  6830
644  6995
643  7140
642  6855
641  6870
640  6870
639  6790
638  7075
637  7285
636  6940
635  6990
634  7195
633  7020
632  7260
631  6825
630  6975
629  7015
628  7110
627  7075
626  6910
625  6845
624  6825
623  6795
622  7025
621  7035
620  6840
619  7145
618  6900
617  6925
616  6645
615  6955
614  6935
613  6555
612  7255
611  7085
610  6840
609  6965
608  6950
607  7010
606  7670
605  6305
604  7215
603  7015
602  6815
601  6870
600  6985
599  6920
598  6880
597  6780
596  6925
595  7080
594  7000
593  7030
592  6875
591  6890
590  7145
589  7120
588  6630
587  7160
586  7185
585  6700
584  7195
583  6980
582  6545
581  6910
580  6825
579  7015
578  7205
577  6860
576  6950
575  6705
574  6580
573  7025
572  6620
571  6745
570  6695
569  6595
568  6565
567  6455
566  6770
565  6415
564  7050
563  7495
562  7140
561  7470
560  7430
559  7455
558  7440
557  7260
556  7385
555  7180
554  6560
553  6650
552  6450
551  6175
550  6305
549  5855
548  6010
547  5390
546  5330
545  4920
544  4820
543  4855
542  4960
541  4535
540  5050
539  5060
538  6135
537  10020
536  16040
535  18925
534  12890
533  6625
532  4875
531  4720
530  4600
529  4065
528  4360
527  4460
526  5050
525  5040
524  4985
523  4675
522  4125
521  3715
520  4000
519  3730
518  3855
517  3950
516  3685
515  3820
514  3665
513  3960
512  3435
511  3995
510  3775
509  3720
508  3710
507  3750
506  3730
505  4045
504  3550
503  3895
502  3815
501  3790
500  3900
499  3725
498  3620
497  3885
496  3720
495  3785
494  3720
493  3960
492  3670
491  3645
490  3865
489  3805
488  3795
487  3895
486  3635
485  3645
484  3510
483  3770
482  3710
481  3700
480  3645
479  3635
478  3640
477  3605
476  3750
475  3705
474  3750
473  3445
472  3550
471  3740
470  3795
469  3650
468  3565
467  3775
466  3645
465  3930
464  3570
463  3510
462  3495
461  3440
460  3405
459  3440
458  3510
457  3660
456  3360
455  3395
454  3525
453  3745
452  3525
451  3405
450  3465
449  3325
448  3520
447  3420
446  3450
445  3435
444  3265
443  3450
442  3550
441  3390
440  3280
439  3365
438  3390
437  3465
436  3365
435  3345
434  3285
433  3500
432  3390
431  3425
430  3495
429  3300
428  3330
427  3570
426  3135
425  3195
424  3450
423  3340
422  3230
421  3700
420  3455
419  3610
418  3335
417  3335
416  3345
415  3175
414  3340
413  3455
412  3295
411  3250
410  3300
409  3405
408  3335
407  3250
406  3200
405  3480
404  3580
403  3715
402  3740
401  3670
400  3625
399  3200
398  3465
397  3265
396  3240
395  3490
394  3335
393  3605
392  2840
391  3120
390  3195
389  3185
388  3095
387  3215
386  3180
385  3150
384  3290
383  3395
382  3465
381  3140
380  3125
379  3295
378  3200
377  3340
376  3120
375  2975
374  3045
373  3170
372  3505
371  3275
370  3205
369  3305
368  3330
367  3215
366  3285
365  3180
364  3215
363  3080
362  3225
361  3085
360  3210
359  3300
358  3345
357  2960
356  3195
355  3410
354  3210
353  3100
352  3260
351  3175
350  3105
349  3375
348  3420
347  3115
346  3140
345  3325
344  3115
343  3225
342  3055
341  3115
340  2950
339  3110
338  3370
337  3185
336  3105
335  3365
334  3220
333  3145
332  3120
331  3175
330  3135
329  3290
328  3395
327  3010
326  3090
325  3040
324  3230
323  3470
322  3120
321  3130
320  3070
319  3055
318  3170
317  3195
316  3220
315  3170
314  3395
313  3260
312  3135
311  3350
310  3315
309  3285
308  3465
307  3150
306  3290
305  3135
304  3255
303  3110
302  3130
301  3355
300  3335
299  3045
298  3240
297  3285
296  3370
295  3190
294  3060
293  2885
292  3260
291  3270
290  4190
289  5020
288  5415
287  5470
286  4480
285  3940
284  2880
283  2835
282  2760
281  2735
280  2865
279  3060
278  2910
277  3100
276  2915
275  2785
274  2685
273  2570
272  2670
271  2635
270  2695
269  2615
268  2645
267  2490
266  2590
265  2385
264  2630
263  2610
262  2575
261  2685
260  2590
259  2630
258  2395
257  2405
256  2615
255  2705
254  2695
253  2680
252  2500
251  2265
250  2495
249  2655
248  2525
247  2505
246  2415
245  2525
244  2325
243  2495
242  2535
241  2495
240  2475
239  2500
238  2430
237  2445
236  2365
235  2505
234  2570
233  2630
232  2515
231  2435
230  2465
229  2245
228  2465
227  2300
226  2505
225  2485
224  2360
223  2285
222  2545
221  2435
220  2465
219  2340
218  2485
217  2440
216  2320
215  2195
214  2245
213  2275
212  2420
211  2290
210  2345
209  2310
208  2310
207  2445
206  2335
205  2485
204  2250
203  2390
202  2405
201  2200
200  2445
199  2315
198  2420
197  2180
196  2415
195  2345
194  2315
193  2255
192  2125
191  2380
190  2240
189  2515
188  2175
187  2250
186  2350
185  2370
184  2225
183  2385
182  2505
181  2410
180  2280
179  2595
178  2460
177  2300
176  2425
175  2400
174  2275
173  2225
172  2165
171  2270
170  2100
169  1975
168  2190
167  1925
166  1870
165  1930
164  1905
163  1980
162  2025
161  2310
160  2420
159  2950
158  3395
157  3955
156  3665
155  2955
154  2250
153  2075
152  1890
151  2015
150  1880
149  2055
148  2030
147  1965
146  2060
145  1850
144  1895
143  1720
142  1770
141  1800
140  1845
139  1650
138  1960
137  1820
136  1765
135  1780
134  1670
133  1605
132  1985
131  1920
130  1730
129  1960
128  1840
127  1990
126  1905
125  1875
124  1700
123  1660
122  1780
121  1735
120  1680
119  1725
118  1850
117  1520
116  1375
115  1580
114  1515
113  1525
112  1505
111  1420
110  1685
109  1510
108  2230
107  2905
106  3560
105  3130
104  1990
103  1535
102  1265
101  1330
100  1330
99  1560
98  1520
97  1560
96  1485
95  1635
94  1285
93  1325
92  1355
91  1300
90  1375
89  1495
88  1465
87  1430
86  1315
85  1330
84  1355
83  1315
82  1220
81  1310
80  1250
79  1425
78  1240
77  1130
76  1415
75  1450
74  1240
73  1185
72  1445
71  1220
70  1355
69  1280
68  1290
67  1315
66  1290
65  1265
64  1285
63  1100
62  1545
61  1160
60  1265
59  1135
58  1280
57  980
56  1380
55  1200
54  1440
53  1350
52  1290
51  1440
50  1265
49  1325
48  1200
47  1220
46  1225
45  1285
44  1060
43  1240
42  1215
41  1155
40  1010
39  1260
38  1115
37  1060
36  1265
35  1180
34  1100
33  1120
32  1190
31  1255
30  1385
29  1490
28  1630
27  1420
26  1340
25  1270
24  1160
23  1155
22  1080
21  1140
20  1015
19  1185
18  1140
17  1090
16  1015
15  935
14  1055
13  1110
12  915
11  1100
10  1025
9  1050
8  1005
7  1030
6  940
5  900
4  995
3  890
2  990
1  825
-2.2737368e-013  880
-1  910
-2  865
-3  905
-4  890

# Region:            O1s
# Acquisition Date:  12/20/21 15:05:29 UTC
# Analysis Method:   XPS
# Analyzer:          Phoibos 100 R6
# Analyzer Lens:     LargeArea:1.5kV
# Analyzer Slit:     1:0.2x20\B:open
# Scan Mode:         FixedAnalyzerTransmission
# Curves/Scan:       1
# Values/Curve:      171
# Dwell Time:        0.8
# Excitation Energy: 1486.61
# Binding Energy:    545
# Pass Energy:       30
# Bias Voltage:      90
# Detector Voltage:  2600
# Eff. Workfunction: 4.309
# Source:            X-Ray Dummy
# Comment:           
#
# Cycle: 0
# Number of Scans: 2
#
# Cycle: 0, Curve: 0
# Acquisition Date: 12/20/21 15:05:29 UTC
#
# ColumnLabels: energy counts/s
#
545  1560.625
544.9  1585
544.8  1553.75
544.7  1595.625
544.6  1550
544.5  1580
544.4  1530
544.3  1510
544.2  1514.375
544.1  1441.25
544  1511.25
543.9  1519.375
543.8  1447.5
543.7  1528.125
543.6  1493.125
543.5  1481.875
543.4  1532.5
543.3  1435.625
543.2  1540
543.1  1540.625
543  1388.75
542.9  1478.125
542.8  1458.125
542.7  1416.875
542.6  1490
542.5  1440
542.4  1454.375
542.3  1444.375
542.2  1428.75
542.1  1495.625
542  1461.875
541.9  1526.875
541.8  1424.375
541.7  1450.625
541.6  1438.75
541.5  1459.375
541.4  1479.375
541.3  1457.5
541.2  1436.25
541.1  1426.875
541  1449.375
540.9  1476.25
540.8  1411.875
540.7  1480.625
540.6  1418.75
540.5  1490
540.4  1456.875
540.3  1513.75
540.2  1493.75
540.1  1411.25
540  1441.25
539.9  1510
539.8  1403.75
539.7  1527.5
539.6  1433.75
539.5  1508.75
539.4  1515.625
539.3  1511.25
539.2  1504.375
539.1  1499.375
539  1483.75
538.9  1520.625
538.8  1544.375
538.7  1596.875
538.6  1594.375
538.5  1618.75
538.4  1557.5
538.3  1720
538.2  1711.25
538.1  1623.75
538  1706.875
537.9  1703.125
537.8  1758.125
537.7  1806.25
537.6  1853.125
537.5  1951.875
537.4  1978.125
537.3  2073.125
537.2  2271.25
537.1  2308.125
537  2515
536.9  2686.25
536.8  2925.625
536.7  3140.625
536.6  3428.125
536.5  3625
536.4  4033.75
536.3  4358.125
536.2  4750
536.1  5090.625
536  5519.375
535.9  5859.375
535.8  6350.625
535.7  6545
535.6  6795
535.5  7158.125
535.4  7358.125
535.3  7436.25
535.2  7648.125
535.1  7494.375
535  7468.75
534.9  7352.5
534.8  7005
534.7  6846.875
534.6  6425.625
534.5  6149.375
534.4  5755
534.3  5413.125
534.2  4861.875
534.1  4429.375
534  4122.5
533.9  3718.125
533.8  3561.25
533.7  3205.625
533.6  2953.75
533.5  2797.5
533.4  2501.25
533.3  2382.5
533.2  2232.5
533.1  2021.875
533  2007.5
532.9  1853.125
532.8  1781.875
532.7  1734.375
532.6  1746.875
532.5  1681.875
532.4  1603.125
532.3  1555.625
532.2  1526.25
532.1  1615.625
532  1480
531.9  1449.375
531.8  1511.875
531.7  1472.5
531.6  1429.375
531.5  1357.5
531.4  1418.125
531.3  1416.875
531.2  1371.875
531.1  1358.75
531  1383.75
530.9  1332.5
530.8  1337.5
530.7  1390.625
530.6  1336.875
530.5  1333.125
530.4  1361.875
530.3  1299.375
530.2  1328.75
530.1  1317.5
530  1365
529.9  1335
529.8  1276.875
529.7  1305.625
529.6  1301.875
529.5  1294.375
529.4  1336.25
529.3  1275
529.2  1276.25
529.1  1290
529  1309.375
528.9  1303.125
528.8  1265
528.7  1261.25
528.6  1276.875
528.5  1261.25
528.4  1267.5
528.3  1288.125
528.2  1281.25
528.1  1226.875
528  1299.375

