# Created by:        SpecsLab Prodigy, Version 4.60.2-r85849 
#
# XY-Serializer Export Settings:
#   Comment Prefix:           #
#   Output meta data:         yes
#   Energy Axis:              Binding Energy
#   Count Rate:               Counts per Second
#   Separate Scan Data:       no
#   Separate Channel Data:    no
#   External Channel Data:    yes
#   Transmission Function:    no
#   ErrorBar:                 no
#   Operation Results:        yes
#   Time Zone Format:         UTC
#
# Group:             Spectrum Group
#
# Region:            C1s
# Acquisition Date:  12/21/21 10:54:36 UTC
# Analysis Method:   XPS
# Analyzer:          Phoibos 100 R6
# Analyzer Lens:     LargeArea:1.5kV
# Analyzer Slit:     1:0.2x20\B:open
# Scan Mode:         FixedAnalyzerTransmission
# Curves/Scan:       1
# Values/Curve:      131
# Dwell Time:        0.8
# Excitation Energy: 1486.61
# Binding Energy:    295
# Pass Energy:       30
# Bias Voltage:      90
# Detector Voltage:  2600
# Eff. Workfunction: 4.309
# Source:            X-Ray Dummy
# Comment:           
#
# Cycle: 0
# Number of Scans: 6
#
# Cycle: 0, Curve: 0
# Acquisition Date: 12/21/21 10:54:36 UTC
#
# ColumnLabels: energy counts/s
#
295  1017.5
294.9  992.91667
294.8  1014.375
294.7  993.75
294.6  1018.5417
294.5  1005.4167
294.4  999.375
294.3  999.58333
294.2  987.70833
294.1  997.08333
294  1014.7917
293.9  994.375
293.8  1004.375
293.7  999.375
293.6  1026.25
293.5  1013.125
293.4  1020.2083
293.3  1032.5
293.2  1010.625
293.1  1013.5417
293  985.625
292.9  1012.7083
292.8  1002.2917
292.7  1004.1667
292.6  992.91667
292.5  1034.1667
292.4  1013.75
292.3  1020.2083
292.2  1040
292.1  1009.1667
292  1026.0417
291.9  1015.4167
291.8  1043.125
291.7  1025.8333
291.6  1057.9167
291.5  1047.9167
291.4  1028.5417
291.3  1049.5833
291.2  1053.9583
291.1  1059.1667
291  1092.5
290.9  1113.5417
290.8  1117.7083
290.7  1117.5
290.6  1095.625
290.5  1160.4167
290.4  1162.0833
290.3  1163.3333
290.2  1218.5417
290.1  1212.7083
290  1259.5833
289.9  1282.5
289.8  1266.25
289.7  1326.875
289.6  1342.5
289.5  1349.375
289.4  1402.5
289.3  1376.6667
289.2  1380
289.1  1443.125
289  1399.1667
288.9  1426.4583
288.8  1453.3333
288.7  1471.875
288.6  1432.0833
288.5  1487.2917
288.4  1461.875
288.3  1463.125
288.2  1475
288.1  1491.875
288  1492.2917
287.9  1474.375
287.8  1480.4167
287.7  1473.5417
287.6  1483.9583
287.5  1454.1667
287.4  1449.1667
287.3  1444.7917
287.2  1432.7083
287.1  1387.0833
287  1394.7917
286.9  1413.125
286.8  1366.6667
286.7  1365.2083
286.6  1348.75
286.5  1342.9167
286.4  1315.625
286.3  1322.2917
286.2  1321.0417
286.1  1329.1667
286  1309.7917
285.9  1319.5833
285.8  1303.9583
285.7  1348.5417
285.6  1330
285.5  1318.9583
285.4  1339.375
285.3  1347.9167
285.2  1336.4583
285.1  1296.4583
285  1292.0833
284.9  1314.5833
284.8  1268.5417
284.7  1252.0833
284.6  1219.7917
284.5  1193.5417
284.4  1209.1667
284.3  1173.125
284.2  1167.9167
284.1  1127.2917
284  1098.75
283.9  1079.375
283.8  1023.9583
283.7  1013.5417
283.6  1015.8333
283.5  1015.4167
283.4  984.375
283.3  997.70833
283.2  979.375
283.1  961.25
283  940.41667
282.9  963.125
282.8  955.83333
282.7  939.79167
282.6  946.25
282.5  937.91667
282.4  922.91667
282.3  925.20833
282.2  935.625
282.1  935
282  941.875

# Region:            Si2p
# Acquisition Date:  12/21/21 10:51:02 UTC
# Analysis Method:   XPS
# Analyzer:          Phoibos 100 R6
# Analyzer Lens:     LargeArea:1.5kV
# Analyzer Slit:     1:0.2x20\B:open
# Scan Mode:         FixedAnalyzerTransmission
# Curves/Scan:       1
# Values/Curve:      141
# Dwell Time:        0.8
# Excitation Energy: 1486.61
# Binding Energy:    112
# Pass Energy:       30
# Bias Voltage:      90
# Detector Voltage:  2600
# Eff. Workfunction: 4.309
# Source:            X-Ray Dummy
# Comment:           
#
# Cycle: 0
# Number of Scans: 5
#
# Cycle: 0, Curve: 0
# Acquisition Date: 12/21/21 10:51:02 UTC
#
# ColumnLabels: energy counts/s
#
112  513
111.9  533.75
111.8  542.25
111.7  524
111.6  552.5
111.5  557.5
111.4  533.25
111.3  527.75
111.2  540
111.1  569.5
111  533
110.9  539.75
110.8  531.5
110.7  550.5
110.6  553
110.5  540.75
110.4  539.75
110.3  567.75
110.2  567.75
110.1  558.25
110  549.5
109.9  583
109.8  564
109.7  569
109.6  573.25
109.5  573.75
109.4  574.25
109.3  588.5
109.2  568.5
109.1  595.75
109  614.25
108.9  607
108.8  651.75
108.7  625.75
108.6  659.75
108.5  716.25
108.4  704.5
108.3  754.5
108.2  774.5
108.1  818.75
108  882.75
107.9  918
107.8  988
107.7  1031.75
107.6  1086
107.5  1148.75
107.4  1198.75
107.3  1323.75
107.2  1407
107.1  1456.25
107  1513.75
106.9  1590
106.8  1600.5
106.7  1617.75
106.6  1673
106.5  1702.25
106.4  1612
106.3  1680.25
106.2  1669.25
106.1  1583.75
106  1563.75
105.9  1529
105.8  1427.25
105.7  1378
105.6  1302.5
105.5  1269.25
105.4  1155.75
105.3  1119.5
105.2  1053.75
105.1  967.75
105  913
104.9  896
104.8  818.25
104.7  789.5
104.6  722.75
104.5  691.25
104.4  665.25
104.3  653.25
104.2  618.75
104.1  614.75
104  591.75
103.9  565
103.8  567.5
103.7  534.5
103.6  545.75
103.5  537.5
103.4  522.25
103.3  537.25
103.2  526.5
103.1  538.25
103  522.5
102.9  544
102.8  504
102.7  512.25
102.6  533.5
102.5  498.5
102.4  526
102.3  507.5
102.2  530.5
102.1  536.5
102  522.75
101.9  522.75
101.8  487
101.7  516.5
101.6  512.75
101.5  515.25
101.4  503.5
101.3  530.25
101.2  499.75
101.1  500.75
101  528.25
100.9  504.25
100.8  522.75
100.7  516
100.6  502
100.5  496.25
100.4  518
100.3  523.5
100.2  512.75
100.1  529.5
100  499
99.9  519
99.8  509.75
99.7  522.75
99.6  510
99.5  492.5
99.4  511
99.3  474.25
99.2  509
99.1  521.75
99  524
98.9  508.5
98.8  513.25
98.7  510.5
98.6  515.25
98.5  518.75
98.4  522.25
98.3  522.5
98.2  522.25
98.1  533.5
98  528.5

# Region:            N1s
# Acquisition Date:  12/21/21 10:56:22 UTC
# Analysis Method:   XPS
# Analyzer:          Phoibos 100 R6
# Analyzer Lens:     LargeArea:1.5kV
# Analyzer Slit:     1:0.2x20\B:open
# Scan Mode:         FixedAnalyzerTransmission
# Curves/Scan:       1
# Values/Curve:      131
# Dwell Time:        0.8
# Excitation Energy: 1486.61
# Binding Energy:    408
# Pass Energy:       30
# Bias Voltage:      90
# Detector Voltage:  2600
# Eff. Workfunction: 4.309
# Source:            X-Ray Dummy
# Comment:           
#
# Cycle: 0
# Number of Scans: 6
#
# Cycle: 0, Curve: 0
# Acquisition Date: 12/21/21 10:56:22 UTC
#
# ColumnLabels: energy counts/s
#
408  1081.0417
407.9  1053.3333
407.8  1065.8333
407.7  1039.5833
407.6  1073.125
407.5  1067.0833
407.4  1076.0417
407.3  1091.0417
407.2  1077.5
407.1  1059.7917
407  1065
406.9  1081.25
406.8  1077.7083
406.7  1069.5833
406.6  1079.5833
406.5  1051.6667
406.4  1078.9583
406.3  1067.9167
406.2  1100.625
406.1  1076.4583
406  1085.4167
405.9  1086.4583
405.8  1089.5833
405.7  1090.2083
405.6  1059.5833
405.5  1091.875
405.4  1103.125
405.3  1105.8333
405.2  1101.25
405.1  1117.2917
405  1115.2083
404.9  1120.4167
404.8  1078.75
404.7  1086.6667
404.6  1084.375
404.5  1093.75
404.4  1105.625
404.3  1111.6667
404.2  1123.3333
404.1  1115.4167
404  1118.125
403.9  1122.9167
403.8  1133.5417
403.7  1115
403.6  1131.4583
403.5  1158.9583
403.4  1156.875
403.3  1126.875
403.2  1119.375
403.1  1133.125
403  1152.9167
402.9  1140.2083
402.8  1114.7917
402.7  1160.8333
402.6  1161.0417
402.5  1167.0833
402.4  1143.75
402.3  1152.5
402.2  1183.5417
402.1  1139.5833
402  1197.0833
401.9  1177.2917
401.8  1182.9167
401.7  1150
401.6  1137.5
401.5  1141.875
401.4  1156.875
401.3  1158.5417
401.2  1188.125
401.1  1105.8333
401  1098.9583
400.9  1140.625
400.8  1147.9167
400.7  1137.5
400.6  1127.9167
400.5  1105
400.4  1135.2083
400.3  1083.125
400.2  1111.0417
400.1  1081.6667
400  1122.7083
399.9  1101.0417
399.8  1090.8333
399.7  1103.75
399.6  1096.875
399.5  1080
399.4  1090.2083
399.3  1051.25
399.2  1083.125
399.1  1070.625
399  1079.7917
398.9  1062.5
398.8  1072.9167
398.7  1058.125
398.6  1079.5833
398.5  1078.125
398.4  1074.375
398.3  1076.25
398.2  1088.125
398.1  1062.7083
398  1066.4583
397.9  1066.6667
397.8  1046.0417
397.7  1069.375
397.6  1016.875
397.5  1046.6667
397.4  1099.1667
397.3  1037.7083
397.2  1068.75
397.1  1053.3333
397  1047.9167
396.9  1060.625
396.8  1054.7917
396.7  1057.0833
396.6  1061.875
396.5  1063.9583
396.4  1065
396.3  1035
396.2  1040.4167
396.1  1043.75
396  1074.1667
395.9  1032.2917
395.8  1054.1667
395.7  1050.2083
395.6  1052.7083
395.5  1043.125
395.4  1063.3333
395.3  1046.25
395.2  1051.6667
395.1  1042.7083
395  1050.8333

# Region:            overview
# Acquisition Date:  12/21/21 10:31:46 UTC
# Analysis Method:   XPS
# Analyzer:          Phoibos 100 R6
# Analyzer Lens:     LargeArea:1.5kV
# Analyzer Slit:     1:0.2x20\B:open
# Scan Mode:         FixedAnalyzerTransmission
# Curves/Scan:       1
# Values/Curve:      1205
# Dwell Time:        0.2
# Excitation Energy: 1486.61
# Binding Energy:    1200
# Pass Energy:       50
# Bias Voltage:      90
# Detector Voltage:  2600
# Eff. Workfunction: 4.309
# Source:            X-Ray Dummy
# Comment:           
#
# Cycle: 0
# Number of Scans: 1
#
# Cycle: 0, Curve: 0
# Acquisition Date: 12/21/21 10:31:46 UTC
#
# ColumnLabels: energy counts/s
#
1200  8810
1199  8060
1198  8230
1197  8380
1196  8415
1195  8150
1194  8300
1193  8330
1192  8275
1191  8610
1190  8410
1189  8310
1188  8375
1187  8050
1186  8175
1185  8470
1184  8515
1183  8435
1182  8350
1181  8285
1180  8210
1179  8375
1178  8235
1177  8345
1176  8660
1175  7965
1174  8555
1173  8375
1172  8180
1171  8170
1170  8460
1169  8310
1168  7800
1167  8055
1166  8380
1165  8360
1164  7895
1163  8220
1162  8500
1161  8500
1160  8060
1159  8635
1158  8075
1157  8145
1156  8295
1155  8120
1154  8290
1153  7860
1152  8465
1151  8220
1150  8460
1149  7735
1148  8505
1147  8200
1146  8295
1145  8495
1144  8445
1143  8480
1142  8640
1141  8550
1140  8025
1139  8010
1138  8260
1137  8365
1136  8175
1135  8780
1134  8385
1133  8645
1132  8460
1131  8165
1130  8250
1129  8355
1128  8170
1127  8160
1126  8125
1125  8800
1124  8455
1123  8435
1122  8005
1121  8700
1120  8375
1119  8395
1118  8345
1117  8220
1116  8280
1115  8490
1114  8370
1113  8390
1112  8265
1111  8450
1110  8380
1109  8285
1108  8410
1107  8170
1106  8135
1105  8210
1104  8015
1103  8325
1102  8430
1101  8340
1100  8435
1099  8460
1098  8430
1097  8390
1096  8325
1095  8140
1094  8320
1093  8300
1092  8565
1091  8175
1090  7950
1089  8160
1088  8135
1087  8270
1086  8090
1085  8550
1084  8610
1083  8400
1082  8570
1081  8365
1080  8265
1079  8210
1078  8435
1077  7960
1076  8305
1075  8540
1074  8455
1073  8515
1072  8940
1071  8180
1070  8595
1069  8305
1068  8295
1067  8520
1066  8805
1065  8170
1064  8255
1063  8565
1062  8810
1061  8040
1060  8605
1059  8345
1058  8070
1057  8350
1056  8965
1055  9090
1054  8760
1053  8645
1052  8385
1051  8460
1050  8615
1049  8765
1048  8475
1047  8545
1046  8350
1045  8185
1044  8685
1043  8610
1042  8555
1041  8760
1040  8465
1039  8395
1038  8915
1037  8415
1036  8525
1035  8900
1034  8515
1033  8310
1032  8660
1031  8445
1030  8835
1029  9005
1028  8900
1027  9005
1026  8370
1025  9030
1024  9060
1023  8815
1022  9050
1021  8885
1020  9410
1019  9140
1018  9050
1017  8685
1016  8555
1015  8750
1014  8805
1013  8665
1012  8870
1011  9285
1010  8635
1009  9725
1008  9045
1007  8965
1006  9510
1005  9255
1004  9445
1003  9490
1002  8980
1001  9075
1000  8625
999  8705
998  8795
997  8325
996  8655
995  8045
994  8105
993  7750
992  8205
991  8485
990  8575
989  8355
988  8630
987  8780
986  9645
985  10025
984  10345
983  10430
982  10115
981  9910
980  9065
979  8805
978  8645
977  8240
976  7810
975  7370
974  6875
973  7110
972  6895
971  6880
970  6355
969  6540
968  6290
967  5980
966  6380
965  6400
964  6345
963  6330
962  6270
961  6125
960  6320
959  6465
958  6545
957  6585
956  6360
955  6525
954  6385
953  6495
952  6270
951  6060
950  6480
949  6255
948  6265
947  6185
946  6565
945  6405
944  6295
943  6510
942  6285
941  6220
940  6130
939  6180
938  6180
937  6445
936  6380
935  6400
934  6355
933  6435
932  6295
931  6405
930  6445
929  5980
928  6370
927  6440
926  6295
925  6185
924  6275
923  6345
922  6435
921  6350
920  6505
919  6290
918  6480
917  6570
916  6365
915  6220
914  6155
913  6285
912  6280
911  6295
910  6765
909  6380
908  6060
907  6600
906  6285
905  6345
904  6365
903  6415
902  6115
901  6270
900  6355
899  6330
898  6170
897  6680
896  6310
895  6080
894  6225
893  6330
892  6830
891  6400
890  6440
889  6485
888  6215
887  6530
886  6510
885  6355
884  6385
883  6660
882  6315
881  6520
880  6410
879  6350
878  6165
877  6680
876  6535
875  6455
874  6500
873  6650
872  6535
871  6480
870  6405
869  6750
868  6615
867  6725
866  6085
865  6565
864  6680
863  6750
862  6280
861  6415
860  6165
859  6570
858  6085
857  6335
856  6650
855  6570
854  6630
853  6300
852  6325
851  6425
850  6465
849  6650
848  6445
847  6470
846  6425
845  6395
844  6610
843  6355
842  6440
841  6395
840  6660
839  6590
838  6325
837  6305
836  6760
835  6505
834  6635
833  6040
832  6570
831  6460
830  6365
829  6335
828  6745
827  6400
826  6685
825  6550
824  6390
823  6335
822  6615
821  6305
820  6500
819  6355
818  6345
817  6680
816  6155
815  6705
814  6390
813  6580
812  6525
811  6265
810  6265
809  6225
808  6475
807  6290
806  6430
805  6465
804  6650
803  6430
802  6855
801  6315
800  6420
799  6510
798  6315
797  6775
796  6605
795  6500
794  6425
793  6490
792  6190
791  6685
790  6550
789  6645
788  6835
787  6655
786  6400
785  6300
784  6665
783  6575
782  6480
781  6465
780  6280
779  6320
778  6490
777  6300
776  7065
775  6195
774  6540
773  6680
772  6870
771  6785
770  6730
769  6585
768  6860
767  6810
766  6360
765  6725
764  6490
763  6675
762  6720
761  6320
760  6305
759  6650
758  6385
757  6730
756  6425
755  6310
754  6325
753  6475
752  6895
751  6845
750  6560
749  6505
748  6530
747  6680
746  6355
745  6800
744  6565
743  6375
742  6770
741  6445
740  6655
739  6465
738  6545
737  6935
736  6570
735  7015
734  6415
733  6510
732  6760
731  6835
730  6520
729  6585
728  6560
727  6640
726  6775
725  6475
724  6805
723  6480
722  6650
721  6775
720  6785
719  6565
718  6590
717  6415
716  6895
715  6665
714  6795
713  6850
712  6620
711  6900
710  6455
709  6740
708  6660
707  7010
706  6860
705  6975
704  6905
703  6995
702  6825
701  6785
700  6860
699  6795
698  6540
697  6760
696  6670
695  6525
694  6720
693  6655
692  6615
691  6940
690  6760
689  6765
688  6720
687  6695
686  7000
685  6695
684  7075
683  6770
682  6490
681  6535
680  6585
679  6940
678  6675
677  6665
676  7025
675  6545
674  6680
673  6980
672  6840
671  6710
670  6905
669  7005
668  6930
667  6590
666  6930
665  6780
664  6945
663  6555
662  6950
661  6885
660  6975
659  6990
658  7290
657  6755
656  7025
655  6795
654  6835
653  7040
652  6900
651  7185
650  6735
649  6760
648  6900
647  6925
646  7070
645  6930
644  6735
643  6620
642  6595
641  6920
640  6755
639  6750
638  7090
637  7120
636  6805
635  7155
634  7055
633  7075
632  7075
631  7055
630  6995
629  7210
628  6930
627  7180
626  7065
625  6960
624  7025
623  7155
622  7125
621  6920
620  6825
619  7095
618  7295
617  6835
616  7320
615  6800
614  7030
613  7150
612  7050
611  7150
610  7090
609  7380
608  7120
607  7150
606  7260
605  7345
604  6880
603  7345
602  6815
601  7035
600  6830
599  6790
598  7355
597  7085
596  7485
595  7095
594  6945
593  7055
592  7380
591  7160
590  7130
589  7085
588  7135
587  7080
586  7015
585  7385
584  7190
583  7395
582  7055
581  7405
580  7275
579  6780
578  7050
577  7020
576  6970
575  6705
574  6870
573  6920
572  7155
571  7210
570  7035
569  6600
568  7290
567  7115
566  7255
565  7295
564  7505
563  7495
562  7525
561  7970
560  7545
559  7795
558  7805
557  7470
556  7315
555  7070
554  7130
553  6780
552  6320
551  6420
550  6180
549  5940
548  5865
547  5395
546  5380
545  4855
544  4950
543  5055
542  4905
541  4960
540  5160
539  6165
538  9050
537  15985
536  23225
535  18145
534  9840
533  6345
532  4855
531  4460
530  4455
529  4350
528  4230
527  5300
526  5415
525  5305
524  4885
523  4480
522  4280
521  4035
520  3980
519  4050
518  3615
517  3890
516  3925
515  3900
514  4060
513  3825
512  3940
511  3945
510  4010
509  3795
508  4020
507  3590
506  3870
505  3895
504  3705
503  3985
502  3950
501  4030
500  3575
499  3725
498  3555
497  3765
496  3765
495  3775
494  3600
493  3865
492  3785
491  4025
490  3670
489  3895
488  3780
487  3710
486  3760
485  3530
484  3345
483  3685
482  3630
481  3720
480  3690
479  3860
478  3615
477  3615
476  3655
475  3680
474  3605
473  3745
472  3700
471  3820
470  3665
469  3585
468  3580
467  3895
466  3825
465  3850
464  3860
463  3850
462  3520
461  3670
460  3520
459  3820
458  3590
457  3495
456  3650
455  3680
454  3300
453  3765
452  3545
451  3420
450  3620
449  3345
448  3510
447  3580
446  3565
445  3435
444  3345
443  3465
442  3520
441  3635
440  3585
439  3435
438  3630
437  3415
436  3500
435  3300
434  3420
433  3510
432  3450
431  3435
430  3520
429  3360
428  3435
427  3520
426  3330
425  3465
424  3655
423  3515
422  3235
421  3350
420  3450
419  3530
418  3500
417  3290
416  3235
415  3350
414  3390
413  3265
412  3635
411  3390
410  3450
409  3345
408  3230
407  3265
406  3740
405  3390
404  3605
403  3910
402  3645
401  3365
400  3590
399  3155
398  3395
397  3375
396  3425
395  3230
394  3165
393  3155
392  3225
391  2945
390  3290
389  2980
388  3340
387  3230
386  3330
385  3170
384  3500
383  3410
382  3165
381  3005
380  3390
379  3180
378  3145
377  3455
376  3045
375  3185
374  3135
373  3210
372  3155
371  3160
370  3105
369  3060
368  3290
367  3150
366  3145
365  3045
364  2870
363  3140
362  3155
361  3160
360  3340
359  3230
358  3120
357  3040
356  3350
355  3170
354  3080
353  3065
352  3075
351  3235
350  3395
349  3380
348  3455
347  3355
346  3085
345  3190
344  3025
343  3020
342  3070
341  3040
340  3215
339  3180
338  3115
337  3185
336  3185
335  3210
334  3205
333  2980
332  3230
331  3115
330  3260
329  3315
328  3210
327  3100
326  3060
325  3085
324  3135
323  3405
322  3215
321  3135
320  3185
319  3210
318  3220
317  3140
316  3245
315  3060
314  3120
313  3105
312  3390
311  3265
310  3060
309  3065
308  3230
307  3190
306  2985
305  2955
304  3040
303  3200
302  3105
301  2920
300  2945
299  3090
298  2850
297  3110
296  3110
295  3110
294  3040
293  3065
292  2875
291  3185
290  3790
289  3780
288  4545
287  4115
286  4070
285  3805
284  3400
283  3030
282  2545
281  2625
280  2975
279  2980
278  2985
277  2815
276  2795
275  2935
274  2695
273  2675
272  2475
271  2765
270  2445
269  2785
268  2530
267  2520
266  2585
265  2825
264  2485
263  2665
262  2590
261  2645
260  2690
259  2600
258  2550
257  2620
256  2500
255  2500
254  2600
253  2525
252  2355
251  2495
250  2550
249  2735
248  2625
247  2635
246  2610
245  2570
244  2555
243  2520
242  2480
241  2675
240  2565
239  2735
238  2625
237  2605
236  2495
235  2395
234  2570
233  2700
232  2525
231  2585
230  2575
229  2530
228  2655
227  2580
226  2585
225  2430
224  2600
223  2400
222  2290
221  2335
220  2430
219  2415
218  2610
217  2525
216  2180
215  2395
214  2405
213  2275
212  2300
211  2200
210  2525
209  2280
208  2515
207  2215
206  2520
205  2130
204  2220
203  2350
202  2215
201  2255
200  2440
199  2310
198  2300
197  2355
196  2350
195  2460
194  2145
193  2275
192  2240
191  2270
190  2275
189  2525
188  2385
187  2260
186  2445
185  2620
184  2275
183  2545
182  2490
181  2450
180  2540
179  2565
178  2365
177  2320
176  2405
175  2390
174  2180
173  2185
172  2185
171  2225
170  2290
169  2055
168  2215
167  1985
166  2220
165  2105
164  2020
163  2015
162  2140
161  2255
160  2740
159  3545
158  4535
157  4410
156  3495
155  2650
154  2165
153  2085
152  2190
151  2095
150  1965
149  2085
148  2045
147  2130
146  2070
145  1985
144  1980
143  1920
142  1855
141  1800
140  1890
139  1915
138  1825
137  1935
136  1910
135  1790
134  1875
133  2080
132  2035
131  2000
130  2000
129  1830
128  1935
127  2050
126  1960
125  1625
124  1990
123  1840
122  1645
121  1900
120  1715
119  1670
118  1645
117  1590
116  1585
115  1520
114  1555
113  1560
112  1765
111  1675
110  1615
109  1965
108  2900
107  4205
106  4130
105  2820
104  2000
103  1385
102  1630
101  1400
100  1245
99  1440
98  1310
97  1570
96  1590
95  1460
94  1430
93  1415
92  1485
91  1405
90  1350
89  1430
88  1365
87  1435
86  1260
85  1220
84  1440
83  1320
82  1255
81  1280
80  1295
79  1360
78  1280
77  1315
76  1320
75  1375
74  1555
73  1360
72  1195
71  1270
70  1235
69  1100
68  1220
67  1125
66  1315
65  1335
64  1200
63  1260
62  1305
61  1345
60  1150
59  1395
58  1325
57  1255
56  1385
55  1310
54  1330
53  1390
52  1225
51  1390
50  1400
49  1260
48  1380
47  1355
46  1225
45  1230
44  1220
43  1295
42  1280
41  1205
40  1250
39  1215
38  1220
37  1315
36  1295
35  1190
34  1250
33  1260
32  1290
31  1145
30  1600
29  1610
28  1595
27  1540
26  1340
25  1305
24  1180
23  1170
22  990
21  1020
20  955
19  1120
18  1065
17  1140
16  1085
15  1070
14  1075
13  1000
12  990
11  1050
10  1125
9  1010
8  940
7  1005
6  925
5  995
4  865
3  945
2  960
1  815
-2.2737368e-013  980
-1  860
-2  970
-3  830
-4  955

# Region:            O1s
# Acquisition Date:  12/21/21 10:41:53 UTC
# Analysis Method:   XPS
# Analyzer:          Phoibos 100 R6
# Analyzer Lens:     LargeArea:1.5kV
# Analyzer Slit:     1:0.2x20\B:open
# Scan Mode:         FixedAnalyzerTransmission
# Curves/Scan:       1
# Values/Curve:      171
# Dwell Time:        0.8
# Excitation Energy: 1486.61
# Binding Energy:    545
# Pass Energy:       30
# Bias Voltage:      90
# Detector Voltage:  2600
# Eff. Workfunction: 4.309
# Source:            X-Ray Dummy
# Comment:           
#
# Cycle: 0
# Number of Scans: 2
#
# Cycle: 0, Curve: 0
# Acquisition Date: 12/21/21 10:41:53 UTC
#
# ColumnLabels: energy counts/s
#
545  1550.625
544.9  1579.375
544.8  1571.25
544.7  1505.625
544.6  1495.625
544.5  1520
544.4  1550.625
544.3  1584.375
544.2  1505.625
544.1  1543.75
544  1492.5
543.9  1533.125
543.8  1510.625
543.7  1476.25
543.6  1458.75
543.5  1492.5
543.4  1528.125
543.3  1491.875
543.2  1468.75
543.1  1508.75
543  1513.125
542.9  1465
542.8  1498.125
542.7  1453.75
542.6  1449.375
542.5  1490
542.4  1513.75
542.3  1518.125
542.2  1499.375
542.1  1473.125
542  1523.75
541.9  1522.5
541.8  1458.125
541.7  1540.625
541.6  1478.75
541.5  1471.875
541.4  1497.5
541.3  1521.25
541.2  1470.625
541.1  1523.75
541  1481.25
540.9  1508.125
540.8  1551.25
540.7  1475.625
540.6  1541.25
540.5  1516.25
540.4  1464.375
540.3  1568.125
540.2  1528.75
540.1  1475
540  1585
539.9  1575
539.8  1548.125
539.7  1557.5
539.6  1599.375
539.5  1594.375
539.4  1582.5
539.3  1659.375
539.2  1605.625
539.1  1712.5
539  1766.875
538.9  1703.125
538.8  1736.875
538.7  1749.375
538.6  1821.25
538.5  1924.375
538.4  1874.375
538.3  1956.875
538.2  2059.375
538.1  2156.25
538  2222.5
537.9  2387.5
537.8  2528.125
537.7  2696.875
537.6  2907.5
537.5  3121.875
537.4  3420
537.3  3691.875
537.2  3936.875
537.1  4227.5
537  4683.75
536.9  5128.75
536.8  5595.625
536.7  6192.5
536.6  6631.875
536.5  6980
536.4  7614.375
536.3  7896.25
536.2  8234.375
536.1  8708.125
536  8850
535.9  9215
535.8  9216.25
535.7  9419.375
535.6  9131.875
535.5  8884.375
535.4  8632.5
535.3  8328.125
535.2  7850.625
535.1  7504.375
535  7031.25
534.9  6527.5
534.8  5893.75
534.7  5425
534.6  4992.5
534.5  4614.375
534.4  4153.125
534.3  3775.625
534.2  3386.875
534.1  3108.125
534  2956.25
533.9  2663.75
533.8  2483.125
533.7  2374.375
533.6  2233.125
533.5  2115
533.4  1981.875
533.3  1934.375
533.2  1855
533.1  1869.375
533  1660.625
532.9  1700.625
532.8  1643.75
532.7  1634.375
532.6  1610
532.5  1606.875
532.4  1540.625
532.3  1531.875
532.2  1568.125
532.1  1537.5
532  1482.5
531.9  1475.625
531.8  1491.25
531.7  1456.875
531.6  1516.875
531.5  1503.75
531.4  1411.875
531.3  1414.375
531.2  1479.375
531.1  1409.375
531  1432.5
530.9  1391.25
530.8  1410
530.7  1331.25
530.6  1373.75
530.5  1340
530.4  1383.125
530.3  1346.875
530.2  1386.875
530.1  1369.375
530  1381.875
529.9  1364.375
529.8  1368.125
529.7  1293.75
529.6  1394.375
529.5  1363.125
529.4  1372.5
529.3  1406.875
529.2  1350
529.1  1341.25
529  1366.875
528.9  1351.25
528.8  1352.5
528.7  1338.125
528.6  1335.625
528.5  1273.125
528.4  1305
528.3  1368.125
528.2  1330.625
528.1  1290
528  1362.5

