# Created by:        SpecsLab Prodigy, Version 4.60.2-r85849 
#
# XY-Serializer Export Settings:
#   Comment Prefix:           #
#   Output meta data:         yes
#   Energy Axis:              Binding Energy
#   Count Rate:               Counts per Second
#   Separate Scan Data:       no
#   Separate Channel Data:    no
#   External Channel Data:    yes
#   Transmission Function:    no
#   ErrorBar:                 no
#   Operation Results:        yes
#   Time Zone Format:         UTC
#
# Group:             Spectrum Group
#
# Region:            C1s
# Acquisition Date:  12/21/21 09:52:04 UTC
# Analysis Method:   XPS
# Analyzer:          Phoibos 100 R6
# Analyzer Lens:     LargeArea:1.5kV
# Analyzer Slit:     1:0.2x20\B:open
# Scan Mode:         FixedAnalyzerTransmission
# Curves/Scan:       1
# Values/Curve:      131
# Dwell Time:        0.8
# Excitation Energy: 1486.61
# Binding Energy:    295
# Pass Energy:       30
# Bias Voltage:      90
# Detector Voltage:  2600
# Eff. Workfunction: 4.309
# Source:            X-Ray Dummy
# Comment:           
#
# Cycle: 0
# Number of Scans: 5
#
# Cycle: 0, Curve: 0
# Acquisition Date: 12/21/21 09:52:04 UTC
#
# ColumnLabels: energy counts/s
#
295  953.25
294.9  971.75
294.8  955.75
294.7  958.5
294.6  962.75
294.5  961.75
294.4  976.75
294.3  929.75
294.2  948.5
294.1  962.25
294  960.75
293.9  938
293.8  934.25
293.7  966.75
293.6  970.5
293.5  959
293.4  950.25
293.3  957.75
293.2  983.75
293.1  960.25
293  947.5
292.9  974.5
292.8  972.75
292.7  948.5
292.6  977.25
292.5  977.25
292.4  956.75
292.3  971.5
292.2  968
292.1  953.25
292  938.5
291.9  947.5
291.8  964.75
291.7  1009.25
291.6  963.75
291.5  984
291.4  974
291.3  979.75
291.2  1004.5
291.1  974.75
291  980.75
290.9  1008
290.8  997.25
290.7  1001.75
290.6  981.5
290.5  1014.75
290.4  1018.25
290.3  1024.5
290.2  1044.5
290.1  1039.75
290  1032.25
289.9  1029.5
289.8  1046.5
289.7  1036.25
289.6  1062.5
289.5  1040.5
289.4  1077
289.3  1081.25
289.2  1040
289.1  1052
289  1078
288.9  1052.75
288.8  1084.75
288.7  1102.5
288.6  1050
288.5  1071.25
288.4  1059
288.3  1070.5
288.2  1075
288.1  1036.25
288  1060.5
287.9  1061
287.8  1033.25
287.7  1026.5
287.6  1026.75
287.5  1057.5
287.4  1013
287.3  1059.25
287.2  1059.5
287.1  1051.25
287  1065
286.9  1077.5
286.8  1069.5
286.7  1076
286.6  1132.5
286.5  1149.75
286.4  1126.25
286.3  1134.5
286.2  1129.25
286.1  1182.75
286  1220.75
285.9  1234.5
285.8  1215.5
285.7  1265.25
285.6  1286.25
285.5  1261
285.4  1308.25
285.3  1307.75
285.2  1277.5
285.1  1309.75
285  1270.75
284.9  1271.5
284.8  1285
284.7  1265
284.6  1198.5
284.5  1225.75
284.4  1184.5
284.3  1165.25
284.2  1145.75
284.1  1091.5
284  1078.5
283.9  1086.25
283.8  1064.75
283.7  1041
283.6  1029.75
283.5  992
283.4  988.5
283.3  993.75
283.2  990
283.1  986.75
283  953
282.9  923.25
282.8  949.25
282.7  950.25
282.6  947.75
282.5  949.5
282.4  924.5
282.3  921.5
282.2  891
282.1  927
282  923

# Region:            Si2p
# Acquisition Date:  12/21/21 09:48:31 UTC
# Analysis Method:   XPS
# Analyzer:          Phoibos 100 R6
# Analyzer Lens:     LargeArea:1.5kV
# Analyzer Slit:     1:0.2x20\B:open
# Scan Mode:         FixedAnalyzerTransmission
# Curves/Scan:       1
# Values/Curve:      141
# Dwell Time:        0.8
# Excitation Energy: 1486.61
# Binding Energy:    112
# Pass Energy:       30
# Bias Voltage:      90
# Detector Voltage:  2600
# Eff. Workfunction: 4.309
# Source:            X-Ray Dummy
# Comment:           
#
# Cycle: 0
# Number of Scans: 4
#
# Cycle: 0, Curve: 0
# Acquisition Date: 12/21/21 09:48:31 UTC
#
# ColumnLabels: energy counts/s
#
112  525.3125
111.9  558.75
111.8  570
111.7  540
111.6  556.5625
111.5  565.625
111.4  564.6875
111.3  568.125
111.2  574.0625
111.1  558.4375
111  571.875
110.9  578.125
110.8  589.375
110.7  586.5625
110.6  598.75
110.5  601.25
110.4  612.5
110.3  664.0625
110.2  809.375
110.1  705.3125
110  728.4375
109.9  743.4375
109.8  806.25
109.7  805.3125
109.6  870.3125
109.5  937.5
109.4  971.25
109.3  1041.25
109.2  1140.625
109.1  1159.375
109  1226.875
108.9  1359.375
108.8  1425.9375
108.7  1516.25
108.6  1609.6875
108.5  1688.125
108.4  1742.5
108.3  1801.875
108.2  1896.5625
108.1  1933.75
108  1883.75
107.9  1956.5625
107.8  1918.4375
107.7  1926.875
107.6  1854.0625
107.5  1825.3125
107.4  1759.375
107.3  1685.3125
107.2  1594.375
107.1  1516.5625
107  1487.1875
106.9  1354.0625
106.8  1263.125
106.7  1156.25
106.6  1105.9375
106.5  1030.3125
106.4  961.875
106.3  924.375
106.2  842.1875
106.1  807.5
106  769.0625
105.9  732.1875
105.8  708.125
105.7  664.0625
105.6  643.125
105.5  612.1875
105.4  604.6875
105.3  593.4375
105.2  585.3125
105.1  575.9375
105  564.6875
104.9  568.4375
104.8  538.75
104.7  530.9375
104.6  521.5625
104.5  529.6875
104.4  532.8125
104.3  520.9375
104.2  531.875
104.1  536.25
104  512.5
103.9  506.5625
103.8  527.1875
103.7  504.0625
103.6  507.1875
103.5  504.6875
103.4  492.1875
103.3  531.25
103.2  507.8125
103.1  525.3125
103  507.5
102.9  507.5
102.8  495.3125
102.7  502.5
102.6  517.8125
102.5  500.3125
102.4  517.1875
102.3  491.875
102.2  520
102.1  506.5625
102  523.125
101.9  501.5625
101.8  500.9375
101.7  492.1875
101.6  539.375
101.5  504.375
101.4  505.3125
101.3  510.3125
101.2  490.625
101.1  508.125
101  482.5
100.9  509.375
100.8  515
100.7  518.4375
100.6  499.6875
100.5  502.5
100.4  496.25
100.3  505.3125
100.2  486.875
100.1  499.6875
100  520
99.9  525
99.8  512.5
99.7  516.25
99.6  512.8125
99.5  554.6875
99.4  538.4375
99.3  557.5
99.2  553.125
99.1  535
99  564.0625
98.9  582.1875
98.8  585.3125
98.7  595.3125
98.6  579.375
98.5  575
98.4  586.5625
98.3  564.0625
98.2  604.375
98.1  603.4375
98  606.875

# Region:            N1s
# Acquisition Date:  12/21/21 09:53:50 UTC
# Analysis Method:   XPS
# Analyzer:          Phoibos 100 R6
# Analyzer Lens:     LargeArea:1.5kV
# Analyzer Slit:     1:0.2x20\B:open
# Scan Mode:         FixedAnalyzerTransmission
# Curves/Scan:       1
# Values/Curve:      131
# Dwell Time:        0.8
# Excitation Energy: 1486.61
# Binding Energy:    408
# Pass Energy:       30
# Bias Voltage:      90
# Detector Voltage:  2600
# Eff. Workfunction: 4.309
# Source:            X-Ray Dummy
# Comment:           
#
# Cycle: 0
# Number of Scans: 5
#
# Cycle: 0, Curve: 0
# Acquisition Date: 12/21/21 09:53:50 UTC
#
# ColumnLabels: energy counts/s
#
408  1022.5
407.9  1065.75
407.8  1042.25
407.7  1049.75
407.6  1031
407.5  1010.5
407.4  1053
407.3  1068
407.2  1057
407.1  1055
407  1010.75
406.9  1047.5
406.8  1065.25
406.7  1066.75
406.6  1060.25
406.5  1030.5
406.4  1052.25
406.3  1034.75
406.2  1048.25
406.1  1075
406  1048.75
405.9  1054.75
405.8  1054.5
405.7  1056.5
405.6  1069.75
405.5  1069.5
405.4  1059
405.3  1044.5
405.2  1055
405.1  1055.5
405  1052.75
404.9  1045.75
404.8  1051
404.7  1065.25
404.6  1028
404.5  1041.25
404.4  1067.5
404.3  1064
404.2  1074.25
404.1  1033
404  1108.75
403.9  1078.5
403.8  1060.75
403.7  1063.75
403.6  1067.75
403.5  1077.25
403.4  1103.25
403.3  1066.25
403.2  1050
403.1  1084
403  1077.75
402.9  1071.25
402.8  1092.75
402.7  1083.75
402.6  1095.25
402.5  1093.25
402.4  1097.25
402.3  1051.75
402.2  1063.75
402.1  1068.5
402  1084.5
401.9  1056.5
401.8  1045.5
401.7  1035.75
401.6  1084.75
401.5  1048.25
401.4  1079.5
401.3  1050.75
401.2  1071
401.1  1067
401  1061.25
400.9  1070.5
400.8  1035.5
400.7  1057
400.6  1058.75
400.5  1047.75
400.4  1055.25
400.3  1050.25
400.2  1074
400.1  1051.75
400  1042
399.9  1049.5
399.8  1056.25
399.7  1063.75
399.6  1056.5
399.5  1024.5
399.4  1061.25
399.3  1091.75
399.2  1054.5
399.1  1041
399  1058
398.9  1059.25
398.8  1057
398.7  1030
398.6  1046.5
398.5  1061.5
398.4  1053.5
398.3  1037.5
398.2  1045.25
398.1  1019.25
398  1027.5
397.9  1059.25
397.8  1041
397.7  1043.25
397.6  1033.75
397.5  1024.25
397.4  1063.25
397.3  1009
397.2  1022.5
397.1  1031.25
397  1050.75
396.9  1047.5
396.8  1004.75
396.7  1029.75
396.6  1020.75
396.5  1019.25
396.4  1053
396.3  1021
396.2  1035.75
396.1  1015.75
396  1029.25
395.9  1019.5
395.8  1003
395.7  1034.75
395.6  1007.75
395.5  1023.5
395.4  1028.5
395.3  1019.5
395.2  1025.75
395.1  1031.75
395  1027.25

# Region:            O1s
# Acquisition Date:  12/21/21 09:29:38 UTC
# Analysis Method:   XPS
# Analyzer:          Phoibos 100 R6
# Analyzer Lens:     LargeArea:1.5kV
# Analyzer Slit:     1:0.2x20\B:open
# Scan Mode:         FixedAnalyzerTransmission
# Curves/Scan:       1
# Values/Curve:      171
# Dwell Time:        0.8
# Excitation Energy: 1486.61
# Binding Energy:    545
# Pass Energy:       30
# Bias Voltage:      90
# Detector Voltage:  2600
# Eff. Workfunction: 4.309
# Source:            X-Ray Dummy
# Comment:           
#
# Cycle: 0
# Number of Scans: 1
#
# Cycle: 0, Curve: 0
# Acquisition Date: 12/21/21 09:29:38 UTC
#
# ColumnLabels: energy counts/s
#
545  1465
544.9  1478.75
544.8  1446.25
544.7  1535
544.6  1495
544.5  1503.75
544.4  1450
544.3  1433.75
544.2  1438.75
544.1  1522.5
544  1483.75
543.9  1462.5
543.8  1433.75
543.7  1550
543.6  1520
543.5  1416.25
543.4  1533.75
543.3  1447.5
543.2  1553.75
543.1  1402.5
543  1512.5
542.9  1545
542.8  1451.25
542.7  1463.75
542.6  1436.25
542.5  1541.25
542.4  1451.25
542.3  1538.75
542.2  1645
542.1  1535
542  1513.75
541.9  1531.25
541.8  1641.25
541.7  1505
541.6  1562.5
541.5  1616.25
541.4  1680
541.3  1662.5
541.2  1613.75
541.1  1650
541  1655
540.9  1726.25
540.8  1728.75
540.7  1686.25
540.6  1700
540.5  1762.5
540.4  1826.25
540.3  1838.75
540.2  1957.5
540.1  1963.75
540  2000
539.9  1910
539.8  2202.5
539.7  2210
539.6  2316.25
539.5  2545
539.4  2582.5
539.3  2848.75
539.2  3095
539.1  3337.5
539  3598.75
538.9  3898.75
538.8  4155
538.7  4742.5
538.6  5062.5
538.5  5663.75
538.4  6066.25
538.3  6596.25
538.2  7207.5
538.1  7783.75
538  8463.75
537.9  8948.75
537.8  9522.5
537.7  10006.25
537.6  10348.75
537.5  10306.25
537.4  10835
537.3  10973.75
537.2  11153.75
537.1  10946.25
537  10437.5
536.9  10237.5
536.8  9772.5
536.7  9355
536.6  8850
536.5  8306.25
536.4  7808.75
536.3  7161.25
536.2  6571.25
536.1  5953.75
536  5357.5
535.9  4781.25
535.8  4421.25
535.7  3891.25
535.6  3445
535.5  3135
535.4  3017.5
535.3  2716.25
535.2  2533.75
535.1  2338.75
535  2187.5
534.9  2006.25
534.8  2028.75
534.7  1883.75
534.6  1853.75
534.5  1821.25
534.4  1708.75
534.3  1737.5
534.2  1637.5
534.1  1588.75
534  1637.5
533.9  1621.25
533.8  1511.25
533.7  1582.5
533.6  1511.25
533.5  1508.75
533.4  1505
533.3  1520
533.2  1547.5
533.1  1482.5
533  1478.75
532.9  1465
532.8  1427.5
532.7  1398.75
532.6  1468.75
532.5  1405
532.4  1510
532.3  1463.75
532.2  1398.75
532.1  1491.25
532  1392.5
531.9  1403.75
531.8  1516.25
531.7  1496.25
531.6  1452.5
531.5  1466.25
531.4  1393.75
531.3  1350
531.2  1445
531.1  1340
531  1420
530.9  1428.75
530.8  1412.5
530.7  1352.5
530.6  1347.5
530.5  1362.5
530.4  1405
530.3  1331.25
530.2  1328.75
530.1  1333.75
530  1413.75
529.9  1431.25
529.8  1335
529.7  1361.25
529.6  1270
529.5  1380
529.4  1386.25
529.3  1325
529.2  1383.75
529.1  1466.25
529  1481.25
528.9  1470
528.8  1557.5
528.7  1563.75
528.6  1526.25
528.5  1655
528.4  1703.75
528.3  1692.5
528.2  1792.5
528.1  1762.5
528  1853.75

# Region:            overview
# Acquisition Date:  12/21/21 09:33:53 UTC
# Analysis Method:   XPS
# Analyzer:          Phoibos 100 R6
# Analyzer Lens:     LargeArea:1.5kV
# Analyzer Slit:     1:0.2x20\B:open
# Scan Mode:         FixedAnalyzerTransmission
# Curves/Scan:       1
# Values/Curve:      1205
# Dwell Time:        0.2
# Excitation Energy: 1486.61
# Binding Energy:    1200
# Pass Energy:       50
# Bias Voltage:      90
# Detector Voltage:  2600
# Eff. Workfunction: 4.309
# Source:            X-Ray Dummy
# Comment:           
#
# Cycle: 0
# Number of Scans: 1
#
# Cycle: 0, Curve: 0
# Acquisition Date: 12/21/21 09:33:53 UTC
#
# ColumnLabels: energy counts/s
#
1200  8205
1199  8385
1198  8240
1197  8845
1196  8475
1195  8430
1194  8620
1193  8670
1192  8540
1191  8530
1190  8510
1189  8305
1188  8055
1187  8510
1186  8315
1185  8345
1184  7960
1183  8415
1182  8370
1181  8060
1180  8275
1179  8430
1178  8240
1177  8260
1176  8325
1175  8255
1174  8245
1173  8370
1172  8340
1171  8270
1170  8150
1169  8255
1168  8400
1167  8500
1166  8815
1165  8135
1164  8325
1163  8325
1162  8210
1161  8335
1160  8340
1159  7860
1158  8305
1157  8180
1156  8400
1155  8020
1154  8390
1153  8405
1152  8295
1151  8370
1150  8090
1149  8610
1148  8225
1147  7980
1146  8405
1145  8680
1144  8270
1143  8110
1142  8030
1141  8575
1140  7875
1139  8105
1138  8195
1137  8505
1136  8755
1135  8455
1134  8295
1133  8080
1132  8335
1131  8055
1130  8200
1129  8385
1128  8120
1127  8265
1126  8360
1125  8445
1124  8610
1123  8625
1122  8605
1121  8085
1120  8265
1119  8475
1118  8525
1117  8400
1116  7930
1115  8745
1114  8400
1113  8515
1112  8440
1111  8195
1110  8390
1109  8220
1108  8335
1107  8285
1106  8140
1105  8400
1104  8605
1103  8190
1102  8460
1101  7855
1100  8205
1099  8070
1098  8180
1097  8260
1096  8260
1095  8320
1094  8195
1093  8490
1092  8475
1091  8760
1090  8550
1089  8140
1088  8525
1087  8495
1086  8555
1085  8125
1084  8335
1083  8525
1082  8535
1081  8600
1080  8375
1079  8505
1078  8295
1077  8750
1076  8525
1075  8515
1074  8195
1073  8370
1072  8765
1071  8210
1070  7990
1069  8470
1068  8045
1067  8620
1066  8455
1065  9015
1064  8795
1063  8795
1062  8460
1061  8815
1060  8700
1059  8240
1058  8675
1057  8400
1056  8620
1055  8425
1054  8555
1053  8920
1052  8575
1051  8515
1050  8740
1049  8690
1048  8620
1047  8840
1046  9015
1045  8710
1044  8865
1043  8645
1042  9020
1041  8970
1040  8660
1039  8550
1038  8915
1037  8390
1036  8655
1035  8910
1034  8730
1033  8580
1032  8765
1031  9050
1030  8800
1029  9065
1028  9085
1027  9215
1026  8960
1025  9550
1024  9115
1023  9010
1022  9545
1021  9200
1020  8970
1019  9100
1018  9175
1017  8880
1016  9320
1015  8795
1014  9485
1013  9185
1012  8980
1011  9655
1010  9745
1009  9555
1008  9730
1007  10055
1006  10125
1005  10250
1004  9785
1003  9735
1002  9240
1001  9115
1000  8845
999  8525
998  8960
997  8665
996  8490
995  8680
994  8460
993  8735
992  8750
991  8745
990  8960
989  9505
988  10485
987  11050
986  11215
985  12075
984  12010
983  11580
982  10395
981  9865
980  9275
979  8390
978  8625
977  7905
976  7495
975  7355
974  7135
973  6975
972  6685
971  6545
970  6375
969  6115
968  6350
967  6190
966  6425
965  6210
964  6375
963  6465
962  6175
961  6180
960  6030
959  6470
958  5690
957  6515
956  6540
955  6225
954  6120
953  6205
952  6445
951  6315
950  6340
949  6180
948  6445
947  5930
946  6150
945  6050
944  6350
943  6350
942  6175
941  6240
940  6145
939  6300
938  6545
937  6235
936  6390
935  6395
934  6585
933  6070
932  6055
931  6540
930  6400
929  6045
928  6355
927  6260
926  6350
925  6115
924  6270
923  6180
922  6250
921  6265
920  6110
919  6430
918  6615
917  6040
916  5995
915  6400
914  6025
913  6345
912  6430
911  6495
910  6530
909  6300
908  6385
907  6420
906  6615
905  6050
904  6325
903  6155
902  6265
901  6590
900  6490
899  6295
898  6230
897  6480
896  5830
895  6165
894  6425
893  6440
892  6500
891  6520
890  6315
889  6630
888  6270
887  6390
886  6315
885  6455
884  6365
883  6115
882  6240
881  6625
880  6515
879  5955
878  6690
877  6215
876  6265
875  6220
874  6420
873  6235
872  6610
871  6135
870  6120
869  6000
868  6390
867  6755
866  6930
865  6335
864  6325
863  6385
862  6220
861  5995
860  6380
859  6095
858  6595
857  6225
856  6425
855  6155
854  6285
853  6350
852  6260
851  6540
850  6400
849  6420
848  6495
847  6360
846  6215
845  6465
844  6600
843  6375
842  6365
841  6530
840  6545
839  6405
838  6595
837  6380
836  6810
835  6820
834  6465
833  6165
832  6585
831  6505
830  6450
829  6465
828  6085
827  6135
826  6435
825  6265
824  6015
823  6430
822  6680
821  6375
820  6550
819  6550
818  6365
817  6385
816  6600
815  6390
814  6585
813  6565
812  6240
811  6475
810  6780
809  6535
808  6820
807  6485
806  6680
805  6205
804  6420
803  6385
802  6560
801  6700
800  6725
799  6435
798  6710
797  6895
796  6645
795  6410
794  6515
793  6545
792  6760
791  6530
790  6910
789  6460
788  6630
787  6665
786  6495
785  6145
784  6880
783  6320
782  6370
781  6995
780  6485
779  6755
778  6535
777  6400
776  6440
775  6515
774  6560
773  6635
772  6625
771  6745
770  6555
769  6395
768  6845
767  6380
766  6210
765  6520
764  6730
763  6575
762  6525
761  6635
760  6310
759  6620
758  6600
757  6600
756  6615
755  6470
754  6680
753  6645
752  6455
751  6670
750  6555
749  6860
748  6770
747  6720
746  6450
745  6655
744  6475
743  6715
742  6570
741  6825
740  6580
739  6635
738  6535
737  6840
736  6865
735  6545
734  6540
733  6330
732  6535
731  7035
730  6730
729  6680
728  6280
727  6650
726  7165
725  6515
724  6550
723  6320
722  7145
721  6395
720  6905
719  6620
718  6690
717  6985
716  6785
715  6625
714  7070
713  6835
712  6885
711  6865
710  6685
709  6655
708  6725
707  7015
706  6685
705  6995
704  6720
703  6435
702  6960
701  6815
700  6555
699  6665
698  6625
697  6935
696  6860
695  6710
694  6545
693  6670
692  7245
691  6650
690  6825
689  7270
688  7100
687  6605
686  6655
685  6685
684  6950
683  6730
682  6905
681  6705
680  6840
679  6795
678  6730
677  6805
676  6970
675  6960
674  6630
673  6965
672  6765
671  6720
670  6855
669  6805
668  6980
667  6980
666  6900
665  6840
664  6740
663  6600
662  6730
661  6780
660  6890
659  6830
658  7080
657  6830
656  6965
655  6905
654  6950
653  7005
652  6795
651  6690
650  7080
649  7005
648  7090
647  6790
646  7065
645  7070
644  6735
643  6940
642  6960
641  6865
640  6805
639  7200
638  6715
637  7030
636  7230
635  6715
634  7035
633  6865
632  6615
631  6990
630  6555
629  6660
628  7115
627  7040
626  7095
625  6770
624  6845
623  6965
622  7180
621  7120
620  7350
619  6990
618  7000
617  6970
616  7270
615  6810
614  6570
613  7200
612  7150
611  7145
610  7410
609  7325
608  7200
607  7180
606  6635
605  7335
604  6795
603  6965
602  7385
601  6890
600  7290
599  6865
598  6930
597  7305
596  6835
595  6850
594  7425
593  7470
592  7320
591  7365
590  7550
589  7055
588  6955
587  7035
586  6930
585  7325
584  7530
583  7210
582  7070
581  7320
580  7215
579  7430
578  7105
577  7065
576  7080
575  7005
574  7155
573  7390
572  6835
571  6935
570  7055
569  7340
568  7230
567  7400
566  7350
565  7625
564  7810
563  7940
562  8050
561  8270
560  7950
559  7940
558  7460
557  7680
556  6690
555  6890
554  6900
553  6260
552  6180
551  6170
550  6035
549  6025
548  5690
547  5370
546  5160
545  4560
544  4630
543  4790
542  5130
541  5455
540  7590
539  13515
538  23390
537  26545
536  16485
535  7755
534  5190
533  4695
532  4640
531  4420
530  4610
529  4910
528  5590
527  5705
526  5410
525  4790
524  4350
523  4075
522  3950
521  3690
520  4200
519  3945
518  3535
517  4125
516  3835
515  3695
514  3950
513  3760
512  3520
511  3725
510  3950
509  3710
508  3640
507  3910
506  3875
505  3745
504  3855
503  3835
502  3540
501  3655
500  3810
499  3750
498  4020
497  3805
496  3775
495  3560
494  3755
493  3560
492  3625
491  3725
490  3670
489  3650
488  3580
487  3915
486  3745
485  3495
484  3575
483  3680
482  3380
481  3505
480  3445
479  3570
478  3775
477  3570
476  3600
475  3575
474  3690
473  3730
472  3470
471  3510
470  3620
469  3755
468  3330
467  3610
466  3780
465  3725
464  3510
463  3335
462  3540
461  3440
460  3500
459  3485
458  3380
457  3010
456  3490
455  3425
454  3145
453  3495
452  3430
451  3605
450  3355
449  3385
448  3550
447  3195
446  3330
445  3325
444  3360
443  3290
442  3555
441  3240
440  3680
439  3420
438  3585
437  3445
436  3415
435  3305
434  3425
433  3375
432  3305
431  3340
430  3270
429  3175
428  3605
427  3125
426  3165
425  3520
424  3235
423  3555
422  3400
421  3135
420  3205
419  3295
418  3345
417  3190
416  3420
415  3240
414  3550
413  3190
412  3185
411  3040
410  3150
409  3085
408  3430
407  3380
406  3385
405  3315
404  3555
403  3390
402  3275
401  3380
400  3350
399  3275
398  3040
397  2970
396  3315
395  3300
394  3255
393  3205
392  3255
391  3415
390  3160
389  3255
388  3150
387  3175
386  3140
385  3190
384  3095
383  3200
382  3145
381  3190
380  3210
379  3240
378  2945
377  3205
376  3175
375  3105
374  3045
373  3100
372  3125
371  3220
370  3115
369  3140
368  3030
367  3095
366  3150
365  3065
364  2985
363  3110
362  3205
361  3185
360  3045
359  2980
358  3065
357  3190
356  3120
355  3135
354  3220
353  3315
352  3175
351  3255
350  3215
349  3190
348  3180
347  3030
346  3160
345  3040
344  3295
343  3050
342  3185
341  3170
340  3055
339  3045
338  2935
337  3040
336  3075
335  3015
334  3000
333  2850
332  3150
331  3005
330  2865
329  3135
328  3050
327  3210
326  2885
325  3300
324  3065
323  3295
322  2920
321  2920
320  2835
319  2780
318  2925
317  3185
316  3210
315  3085
314  2950
313  3105
312  2980
311  3075
310  3165
309  3270
308  2725
307  2965
306  2945
305  3095
304  2905
303  3110
302  2895
301  3020
300  2850
299  3095
298  2755
297  2835
296  2845
295  2910
294  2900
293  3055
292  3045
291  3090
290  3180
289  3205
288  3220
287  3590
286  3730
285  3910
284  3170
283  2870
282  2900
281  2755
280  2555
279  2625
278  2745
277  2760
276  2785
275  2635
274  2720
273  2700
272  2655
271  2800
270  2460
269  2700
268  2545
267  2490
266  2660
265  2595
264  2510
263  2855
262  2475
261  2665
260  2595
259  2575
258  2600
257  2655
256  2380
255  2530
254  2650
253  2510
252  2690
251  2520
250  2490
249  2490
248  2670
247  2505
246  2955
245  2525
244  2640
243  2735
242  2290
241  2635
240  2425
239  2435
238  2480
237  2480
236  2460
235  2690
234  2300
233  2665
232  2610
231  2385
230  2695
229  2620
228  2625
227  2410
226  2530
225  2425
224  2315
223  2400
222  2375
221  2385
220  2380
219  2415
218  2430
217  2385
216  2325
215  2270
214  2335
213  2305
212  2590
211  2350
210  2225
209  2240
208  2425
207  2340
206  2325
205  2350
204  2335
203  2420
202  2295
201  2280
200  2375
199  2360
198  2365
197  2510
196  2450
195  2295
194  2355
193  2315
192  2445
191  2240
190  2450
189  2355
188  2390
187  2240
186  2525
185  2525
184  2335
183  2590
182  2455
181  2500
180  2445
179  2575
178  2535
177  2365
176  2230
175  2255
174  2470
173  2265
172  2135
171  2090
170  2010
169  1930
168  2115
167  2015
166  1925
165  2050
164  2110
163  2255
162  2630
161  3365
160  4510
159  5185
158  4495
157  3175
156  2725
155  2135
154  2065
153  1980
152  2065
151  2035
150  2365
149  2360
148  2100
147  2045
146  2040
145  1955
144  1795
143  1930
142  1805
141  1830
140  1925
139  1790
138  1835
137  1730
136  1980
135  1800
134  1890
133  1850
132  1700
131  1905
130  2090
129  1830
128  1960
127  1890
126  1770
125  1710
124  1860
123  1820
122  1735
121  1555
120  1600
119  1620
118  1565
117  1440
116  1595
115  1525
114  1410
113  1745
112  1445
111  1955
110  2160
109  3660
108  5110
107  4135
106  2320
105  1470
104  1750
103  1465
102  1405
101  1375
100  1355
99  1480
98  1735
97  1715
96  1430
95  1385
94  1425
93  1320
92  1300
91  1310
90  1435
89  1445
88  1560
87  1425
86  1375
85  1375
84  1400
83  1470
82  1250
81  1485
80  1330
79  1220
78  1150
77  1315
76  1205
75  1435
74  1220
73  1230
72  1325
71  1345
70  1390
69  1300
68  1270
67  1515
66  1155
65  1190
64  1225
63  1320
62  1335
61  1215
60  1400
59  1320
58  1220
57  1175
56  1210
55  1265
54  1195
53  1210
52  1245
51  1235
50  1210
49  1350
48  1255
47  1290
46  1260
45  1250
44  1225
43  1325
42  1170
41  1135
40  1285
39  1170
38  1190
37  1135
36  1170
35  1340
34  1200
33  1345
32  1350
31  1520
30  1690
29  1585
28  1370
27  1270
26  1230
25  1210
24  1325
23  1215
22  1175
21  1185
20  1010
19  1115
18  1135
17  1170
16  1030
15  1020
14  1185
13  1120
12  1215
11  1040
10  1045
9  870
8  990
7  895
6  910
5  915
4  975
3  810
2  885
1  1000
-2.2737368e-013  795
-1  845
-2  1035
-3  885
-4  930

