# Created by:        SpecsLab Prodigy, Version 4.60.2-r85849 
#
# XY-Serializer Export Settings:
#   Comment Prefix:           #
#   Output meta data:         yes
#   Energy Axis:              Binding Energy
#   Count Rate:               Counts per Second
#   Separate Scan Data:       no
#   Separate Channel Data:    no
#   External Channel Data:    yes
#   Transmission Function:    no
#   ErrorBar:                 no
#   Operation Results:        yes
#   Time Zone Format:         UTC
#
# Group:             Spectrum Group
#
# Region:            C1s
# Acquisition Date:  12/17/21 16:12:12 UTC
# Analysis Method:   XPS
# Analyzer:          Phoibos 100 R6
# Analyzer Lens:     LargeArea:1.5kV
# Analyzer Slit:     1:0.2x20\B:open
# Scan Mode:         FixedAnalyzerTransmission
# Curves/Scan:       1
# Values/Curve:      131
# Dwell Time:        0.8
# Excitation Energy: 1486.61
# Binding Energy:    295
# Pass Energy:       30
# Bias Voltage:      90
# Detector Voltage:  2600
# Eff. Workfunction: 4.309
# Source:            X-Ray Dummy
# Comment:           
#
# Cycle: 0
# Number of Scans: 5
#
# Cycle: 0, Curve: 0
# Acquisition Date: 12/17/21 16:12:12 UTC
#
# ColumnLabels: energy counts/s
#
295  1010.5
294.9  994
294.8  1004.25
294.7  972.75
294.6  1004
294.5  1033.5
294.4  1020
294.3  1019
294.2  1009.75
294.1  997.75
294  1010.75
293.9  1004.25
293.8  1005.25
293.7  1018.75
293.6  983.75
293.5  1022.5
293.4  996
293.3  1011.5
293.2  990
293.1  1024.5
293  1003.75
292.9  1000.5
292.8  1022.5
292.7  1019
292.6  1029.25
292.5  1026.5
292.4  1046.5
292.3  1016.25
292.2  1016
292.1  1004.75
292  1020.25
291.9  1031.25
291.8  1032
291.7  995
291.6  1022
291.5  1052
291.4  1009
291.3  1024.75
291.2  1044.75
291.1  1061.5
291  1062.25
290.9  1045.75
290.8  1052.5
290.7  1044.5
290.6  1086
290.5  1056.25
290.4  1064.5
290.3  1066
290.2  1048.75
290.1  1093.5
290  1050.25
289.9  1104.5
289.8  1085
289.7  1063.75
289.6  1085.75
289.5  1097
289.4  1133.75
289.3  1087.5
289.2  1132.75
289.1  1142.5
289  1143.5
288.9  1139.25
288.8  1117.25
288.7  1142.75
288.6  1147.5
288.5  1135
288.4  1122.5
288.3  1139.25
288.2  1139.75
288.1  1150.75
288  1107
287.9  1104
287.8  1086.25
287.7  1112.25
287.6  1096.25
287.5  1113.75
287.4  1091.5
287.3  1116.75
287.2  1082.25
287.1  1128.5
287  1104.5
286.9  1097.25
286.8  1103.5
286.7  1121
286.6  1124.25
286.5  1112
286.4  1163.25
286.3  1170
286.2  1181
286.1  1179.25
286  1185.5
285.9  1177.75
285.8  1233.25
285.7  1224.75
285.6  1248.25
285.5  1257.25
285.4  1284.5
285.3  1307.25
285.2  1309.25
285.1  1291.5
285  1283
284.9  1303.5
284.8  1287.75
284.7  1265.5
284.6  1268.25
284.5  1223
284.4  1176.5
284.3  1189.5
284.2  1209.25
284.1  1134.75
284  1147.5
283.9  1113
283.8  1125
283.7  1096
283.6  1064.5
283.5  1083.25
283.4  1076
283.3  1042.25
283.2  1024.5
283.1  1018.75
283  1025.5
282.9  980.5
282.8  1023
282.7  1022.25
282.6  990
282.5  1005.5
282.4  1002.75
282.3  953.75
282.2  995.25
282.1  966
282  996.75

# Region:            N1s
# Acquisition Date:  12/17/21 16:15:43 UTC
# Analysis Method:   XPS
# Analyzer:          Phoibos 100 R6
# Analyzer Lens:     LargeArea:1.5kV
# Analyzer Slit:     1:0.2x20\B:open
# Scan Mode:         FixedAnalyzerTransmission
# Curves/Scan:       1
# Values/Curve:      131
# Dwell Time:        0.8
# Excitation Energy: 1486.61
# Binding Energy:    408
# Pass Energy:       30
# Bias Voltage:      90
# Detector Voltage:  2600
# Eff. Workfunction: 4.309
# Source:            X-Ray Dummy
# Comment:           
#
# Cycle: 0
# Number of Scans: 1
#
# Cycle: 0, Curve: 0
# Acquisition Date: 12/17/21 16:15:43 UTC
#
# ColumnLabels: energy counts/s
#
408  1063.75
407.9  1026.25
407.8  1052.5
407.7  1072.5
407.6  1093.75
407.5  1110
407.4  1088.75
407.3  1127.5
407.2  1133.75
407.1  1162.5
407  1050
406.9  1112.5
406.8  1072.5
406.7  1147.5
406.6  1136.25
406.5  1085
406.4  1163.75
406.3  1052.5
406.2  1106.25
406.1  1082.5
406  1090
405.9  1060
405.8  1105
405.7  1070
405.6  1056.25
405.5  1113.75
405.4  988.75
405.3  1152.5
405.2  1092.5
405.1  1093.75
405  1065
404.9  1160
404.8  1086.25
404.7  1128.75
404.6  1117.5
404.5  1175
404.4  1105
404.3  1072.5
404.2  1138.75
404.1  1153.75
404  1122.5
403.9  1086.25
403.8  1157.5
403.7  1112.5
403.6  1056.25
403.5  1066.25
403.4  1127.5
403.3  1173.75
403.2  1173.75
403.1  1231.25
403  1182.5
402.9  1177.5
402.8  1181.25
402.7  1127.5
402.6  1121.25
402.5  1157.5
402.4  1161.25
402.3  1097.5
402.2  1091.25
402.1  1133.75
402  1163.75
401.9  1117.5
401.8  1105
401.7  1227.5
401.6  1146.25
401.5  1160
401.4  1101.25
401.3  1095
401.2  1106.25
401.1  1173.75
401  1083.75
400.9  1111.25
400.8  1092.5
400.7  1135
400.6  1091.25
400.5  1131.25
400.4  1161.25
400.3  1173.75
400.2  1061.25
400.1  1073.75
400  1101.25
399.9  1127.5
399.8  1140
399.7  1086.25
399.6  1085
399.5  1148.75
399.4  1122.5
399.3  1168.75
399.2  1076.25
399.1  1121.25
399  1163.75
398.9  1068.75
398.8  1182.5
398.7  1145
398.6  1126.25
398.5  1126.25
398.4  1147.5
398.3  1086.25
398.2  987.5
398.1  1105
398  1063.75
397.9  1051.25
397.8  1150
397.7  1076.25
397.6  1182.5
397.5  1122.5
397.4  1088.75
397.3  1125
397.2  1066.25
397.1  1116.25
397  1007.5
396.9  1137.5
396.8  1101.25
396.7  1055
396.6  1123.75
396.5  1097.5
396.4  1058.75
396.3  1092.5
396.2  1123.75
396.1  1055
396  1057.5
395.9  1035
395.8  1032.5
395.7  1073.75
395.6  1068.75
395.5  1071.25
395.4  1130
395.3  1095
395.2  1075
395.1  1040
395  1022.5

# Region:            Si2p
# Acquisition Date:  12/17/21 16:17:38 UTC
# Analysis Method:   XPS
# Analyzer:          Phoibos 100 R6
# Analyzer Lens:     LargeArea:1.5kV
# Analyzer Slit:     1:0.2x20\B:open
# Scan Mode:         FixedAnalyzerTransmission
# Curves/Scan:       1
# Values/Curve:      141
# Dwell Time:        0.8
# Excitation Energy: 1486.61
# Binding Energy:    112
# Pass Energy:       30
# Bias Voltage:      90
# Detector Voltage:  2600
# Eff. Workfunction: 4.309
# Source:            X-Ray Dummy
# Comment:           
#
# Cycle: 0
# Number of Scans: 1
#
# Cycle: 0, Curve: 0
# Acquisition Date: 12/17/21 16:17:38 UTC
#
# ColumnLabels: energy counts/s
#
112  566.25
111.9  567.5
111.8  581.25
111.7  587.5
111.6  597.5
111.5  572.5
111.4  583.75
111.3  550
111.2  612.5
111.1  595
111  598.75
110.9  548.75
110.8  618.75
110.7  601.25
110.6  615
110.5  606.25
110.4  621.25
110.3  616.25
110.2  660
110.1  637.5
110  651.25
109.9  722.5
109.8  735
109.7  802.5
109.6  867.5
109.5  867.5
109.4  883.75
109.3  947.5
109.2  986.25
109.1  1015
109  1097.5
108.9  1177.5
108.8  1307.5
108.7  1371.25
108.6  1433.75
108.5  1488.75
108.4  1615
108.3  1665
108.2  1808.75
108.1  1935
108  2000
107.9  1942.5
107.8  1990
107.7  1983.75
107.6  2087.5
107.5  2107.5
107.4  2033.75
107.3  1923.75
107.2  1932.5
107.1  1808.75
107  1746.25
106.9  1620
106.8  1570
106.7  1567.5
106.6  1390
106.5  1336.25
106.4  1280
106.3  1110
106.2  1032.5
106.1  998.75
106  945
105.9  861.25
105.8  825
105.7  812.5
105.6  770
105.5  783.75
105.4  715
105.3  692.5
105.2  615
105.1  606.25
105  630
104.9  608.75
104.8  572.5
104.7  631.25
104.6  592.5
104.5  566.25
104.4  536.25
104.3  542.5
104.2  586.25
104.1  581.25
104  520
103.9  538.75
103.8  527.5
103.7  566.25
103.6  523.75
103.5  538.75
103.4  582.5
103.3  545
103.2  572.5
103.1  502.5
103  555
102.9  536.25
102.8  541.25
102.7  556.25
102.6  505
102.5  563.75
102.4  555
102.3  516.25
102.2  528.75
102.1  568.75
102  583.75
101.9  527.5
101.8  495
101.7  536.25
101.6  520
101.5  531.25
101.4  522.5
101.3  530
101.2  503.75
101.1  521.25
101  527.5
100.9  503.75
100.8  527.5
100.7  578.75
100.6  541.25
100.5  563.75
100.4  555
100.3  510
100.2  535
100.1  536.25
100  523.75
99.9  562.5
99.8  557.5
99.7  575
99.6  518.75
99.5  521.25
99.4  538.75
99.3  571.25
99.2  531.25
99.1  553.75
99  556.25
98.9  583.75
98.8  607.5
98.7  607.5
98.6  542.5
98.5  570
98.4  600
98.3  598.75
98.2  613.75
98.1  615
98  627.5

# Region:            O1s
# Acquisition Date:  12/17/21 16:19:57 UTC
# Analysis Method:   XPS
# Analyzer:          Phoibos 100 R6
# Analyzer Lens:     LargeArea:1.5kV
# Analyzer Slit:     1:0.2x20\B:open
# Scan Mode:         FixedAnalyzerTransmission
# Curves/Scan:       1
# Values/Curve:      171
# Dwell Time:        0.8
# Excitation Energy: 1486.61
# Binding Energy:    545
# Pass Energy:       30
# Bias Voltage:      90
# Detector Voltage:  2600
# Eff. Workfunction: 4.309
# Source:            X-Ray Dummy
# Comment:           
#
# Cycle: 0
# Number of Scans: 1
#
# Cycle: 0, Curve: 0
# Acquisition Date: 12/17/21 16:19:57 UTC
#
# ColumnLabels: energy counts/s
#
545  1528.75
544.9  1606.25
544.8  1540
544.7  1561.25
544.6  1566.25
544.5  1593.75
544.4  1502.5
544.3  1517.5
544.2  1551.25
544.1  1507.5
544  1452.5
543.9  1556.25
543.8  1512.5
543.7  1645
543.6  1567.5
543.5  1476.25
543.4  1517.5
543.3  1501.25
543.2  1565
543.1  1466.25
543  1488.75
542.9  1456.25
542.8  1577.5
542.7  1561.25
542.6  1578.75
542.5  1572.5
542.4  1437.5
542.3  1525
542.2  1618.75
542.1  1530
542  1562.5
541.9  1583.75
541.8  1563.75
541.7  1553.75
541.6  1570
541.5  1568.75
541.4  1577.5
541.3  1661.25
541.2  1618.75
541.1  1611.25
541  1675
540.9  1712.5
540.8  1687.5
540.7  1793.75
540.6  1726.25
540.5  1831.25
540.4  1842.5
540.3  1763.75
540.2  1880
540.1  1897.5
540  1915
539.9  2091.25
539.8  2036.25
539.7  2086.25
539.6  2090
539.5  2237.5
539.4  2292.5
539.3  2403.75
539.2  2507.5
539.1  2690
539  2813.75
538.9  3102.5
538.8  3348.75
538.7  3663.75
538.6  4135
538.5  4337.5
538.4  4798.75
538.3  5292.5
538.2  5818.75
538.1  6345
538  6568.75
537.9  7472.5
537.8  8037.5
537.7  8722.5
537.6  9308.75
537.5  9633.75
537.4  10177.5
537.3  10697.5
537.2  10772.5
537.1  11163.75
537  11258.75
536.9  11187.5
536.8  11342.5
536.7  11048.75
536.6  10632.5
536.5  10290
536.4  9705
536.3  9091.25
536.2  8812.5
536.1  8122.5
536  7322.5
535.9  6731.25
535.8  6185
535.7  5776.25
535.6  5056.25
535.5  4528.75
535.4  4053.75
535.3  3686.25
535.2  3408.75
535.1  3033.75
535  2888.75
534.9  2571.25
534.8  2397.5
534.7  2302.5
534.6  2180
534.5  2020
534.4  1957.5
534.3  1933.75
534.2  1838.75
534.1  1691.25
534  1710
533.9  1673.75
533.8  1691.25
533.7  1572.5
533.6  1627.5
533.5  1556.25
533.4  1545
533.3  1602.5
533.2  1546.25
533.1  1525
533  1555
532.9  1386.25
532.8  1472.5
532.7  1478.75
532.6  1468.75
532.5  1402.5
532.4  1535
532.3  1508.75
532.2  1533.75
532.1  1436.25
532  1473.75
531.9  1437.5
531.8  1458.75
531.7  1473.75
531.6  1446.25
531.5  1546.25
531.4  1481.25
531.3  1536.25
531.2  1487.5
531.1  1486.25
531  1493.75
530.9  1491.25
530.8  1422.5
530.7  1412.5
530.6  1430
530.5  1405
530.4  1427.5
530.3  1437.5
530.2  1446.25
530.1  1386.25
530  1392.5
529.9  1386.25
529.8  1376.25
529.7  1417.5
529.6  1373.75
529.5  1376.25
529.4  1431.25
529.3  1448.75
529.2  1432.5
529.1  1440
529  1531.25
528.9  1440
528.8  1465
528.7  1613.75
528.6  1602.5
528.5  1555
528.4  1576.25
528.3  1642.5
528.2  1686.25
528.1  1658.75
528  1772.5

# Region:            overview
# Acquisition Date:  12/17/21 16:24:12 UTC
# Analysis Method:   XPS
# Analyzer:          Phoibos 100 R6
# Analyzer Lens:     LargeArea:1.5kV
# Analyzer Slit:     1:0.2x20\B:open
# Scan Mode:         FixedAnalyzerTransmission
# Curves/Scan:       1
# Values/Curve:      1205
# Dwell Time:        0.2
# Excitation Energy: 1486.61
# Binding Energy:    1200
# Pass Energy:       50
# Bias Voltage:      90
# Detector Voltage:  2600
# Eff. Workfunction: 4.309
# Source:            X-Ray Dummy
# Comment:           
#
# Cycle: 0
# Number of Scans: 1
#
# Cycle: 0, Curve: 0
# Acquisition Date: 12/17/21 16:24:12 UTC
#
# ColumnLabels: energy counts/s
#
1200  9320
1199  9160
1198  9105
1197  9435
1196  8970
1195  9305
1194  9170
1193  9290
1192  8980
1191  9080
1190  9290
1189  8950
1188  9095
1187  9330
1186  8915
1185  9325
1184  9515
1183  8950
1182  9220
1181  8665
1180  8960
1179  8785
1178  9195
1177  9115
1176  8945
1175  9120
1174  8820
1173  8875
1172  9080
1171  9640
1170  8775
1169  9170
1168  9205
1167  9100
1166  8900
1165  8885
1164  8925
1163  8985
1162  8860
1161  9170
1160  8925
1159  9385
1158  8855
1157  9065
1156  9250
1155  9040
1154  9280
1153  9230
1152  9040
1151  9120
1150  9330
1149  9035
1148  9075
1147  9220
1146  9245
1145  9205
1144  9000
1143  8760
1142  8850
1141  8945
1140  9395
1139  9265
1138  8815
1137  8920
1136  8815
1135  9060
1134  8690
1133  8960
1132  9135
1131  8935
1130  9545
1129  9310
1128  8880
1127  8970
1126  9085
1125  8785
1124  8725
1123  9005
1122  9100
1121  9350
1120  9140
1119  9125
1118  9430
1117  8890
1116  8800
1115  8890
1114  9015
1113  9390
1112  9065
1111  9085
1110  9480
1109  8915
1108  9165
1107  8635
1106  9300
1105  8880
1104  9095
1103  8830
1102  9135
1101  8875
1100  9050
1099  9370
1098  8895
1097  8845
1096  9190
1095  9020
1094  9225
1093  8850
1092  9140
1091  9075
1090  9360
1089  8820
1088  8925
1087  9260
1086  9175
1085  9185
1084  9085
1083  9080
1082  9415
1081  9240
1080  8705
1079  9175
1078  9315
1077  9395
1076  9035
1075  9160
1074  8805
1073  9580
1072  8945
1071  9130
1070  9020
1069  9485
1068  8955
1067  9115
1066  9180
1065  9210
1064  9085
1063  9345
1062  9000
1061  9405
1060  8905
1059  9030
1058  9120
1057  9045
1056  9185
1055  9150
1054  9385
1053  9150
1052  9230
1051  9035
1050  9525
1049  9465
1048  9625
1047  9385
1046  9645
1045  9595
1044  9480
1043  9435
1042  9795
1041  9415
1040  9595
1039  9400
1038  9435
1037  9785
1036  9410
1035  9520
1034  9195
1033  9570
1032  9620
1031  9670
1030  9475
1029  9520
1028  10005
1027  9875
1026  9780
1025  9890
1024  9535
1023  10205
1022  10255
1021  9805
1020  10350
1019  9925
1018  10050
1017  9715
1016  9615
1015  10120
1014  10160
1013  9965
1012  9880
1011  10330
1010  10255
1009  10140
1008  10805
1007  10685
1006  10650
1005  11070
1004  10920
1003  10165
1002  10270
1001  9740
1000  9600
999  9675
998  9560
997  9495
996  9025
995  9310
994  9515
993  9660
992  9570
991  9300
990  9625
989  9830
988  10730
987  11375
986  11875
985  12390
984  12780
983  12220
982  11655
981  10585
980  9935
979  9160
978  9550
977  8285
976  8470
975  8150
974  7885
973  7450
972  7145
971  6845
970  6685
969  6945
968  7015
967  6860
966  6840
965  7035
964  6860
963  7015
962  6820
961  6730
960  6585
959  6640
958  7105
957  6790
956  6815
955  6495
954  6735
953  6970
952  6835
951  6930
950  6745
949  7050
948  6585
947  6665
946  6735
945  6805
944  6735
943  6935
942  6705
941  6605
940  6505
939  7120
938  6900
937  6755
936  6860
935  6760
934  6685
933  7030
932  6620
931  6570
930  7010
929  6870
928  6805
927  6635
926  6735
925  6920
924  6745
923  6580
922  6810
921  6645
920  6630
919  6335
918  6850
917  6835
916  6400
915  6985
914  6920
913  6795
912  7060
911  6775
910  7335
909  6810
908  6785
907  6855
906  6935
905  6665
904  6625
903  6985
902  6730
901  7135
900  7095
899  7005
898  6830
897  6860
896  7060
895  7040
894  6535
893  7005
892  6885
891  6645
890  7045
889  6945
888  6910
887  7000
886  6770
885  6840
884  7200
883  6925
882  6755
881  6660
880  6865
879  6620
878  6875
877  6775
876  7170
875  6730
874  6520
873  6775
872  6925
871  6925
870  6990
869  6855
868  6780
867  6885
866  6800
865  6720
864  6915
863  6985
862  6915
861  6820
860  7035
859  6655
858  7350
857  7015
856  7330
855  7170
854  6750
853  7240
852  6805
851  7125
850  7090
849  6590
848  6985
847  6845
846  6885
845  6895
844  7200
843  6975
842  6895
841  7360
840  6720
839  7020
838  7050
837  6790
836  6685
835  7300
834  6860
833  6950
832  7130
831  6955
830  7240
829  7330
828  6900
827  7235
826  6685
825  7265
824  6905
823  6590
822  6840
821  6845
820  6865
819  6870
818  6840
817  7005
816  6915
815  7155
814  7025
813  6990
812  6775
811  6585
810  6695
809  6960
808  6820
807  6940
806  7230
805  7080
804  7025
803  6980
802  6680
801  6750
800  7215
799  6975
798  7155
797  7040
796  6755
795  6970
794  7135
793  7040
792  6930
791  7095
790  6930
789  7060
788  6970
787  7245
786  6855
785  7130
784  6890
783  7355
782  7075
781  7050
780  7050
779  7340
778  7200
777  6655
776  7220
775  7030
774  6945
773  7165
772  7250
771  7340
770  7155
769  6830
768  7085
767  7340
766  6985
765  6620
764  6980
763  6755
762  6845
761  7285
760  7295
759  7180
758  6980
757  7255
756  7285
755  7305
754  6955
753  6980
752  7235
751  7200
750  7115
749  7310
748  6700
747  6995
746  6975
745  7265
744  7080
743  6935
742  7180
741  7040
740  7445
739  7395
738  7260
737  7135
736  7235
735  6840
734  6935
733  6945
732  7090
731  7235
730  7045
729  7510
728  7260
727  7460
726  7090
725  7340
724  7170
723  7265
722  7020
721  7335
720  7475
719  7105
718  7350
717  7140
716  6850
715  7500
714  7005
713  7085
712  7400
711  7195
710  7110
709  7065
708  7645
707  7320
706  7200
705  7390
704  7105
703  7325
702  6880
701  7300
700  7075
699  7150
698  7020
697  7440
696  7030
695  7260
694  7210
693  7070
692  7510
691  7645
690  7650
689  7010
688  7590
687  7165
686  7455
685  7175
684  7190
683  7520
682  7305
681  7095
680  7185
679  6915
678  7340
677  7155
676  7085
675  7445
674  7380
673  7300
672  7275
671  6995
670  7435
669  7380
668  7420
667  7330
666  7595
665  7115
664  7685
663  7115
662  7175
661  7220
660  7160
659  7195
658  7235
657  7480
656  7595
655  7360
654  7440
653  7615
652  7430
651  7430
650  7125
649  7470
648  7235
647  7890
646  7590
645  7365
644  7140
643  7600
642  7865
641  7500
640  7180
639  7630
638  7645
637  7200
636  7420
635  7500
634  7795
633  8030
632  7340
631  7595
630  7220
629  7650
628  7325
627  7355
626  7775
625  7365
624  7410
623  7485
622  7720
621  7705
620  7485
619  7645
618  7450
617  7650
616  7480
615  7785
614  7355
613  7475
612  7515
611  7610
610  7105
609  7550
608  7310
607  7480
606  7735
605  7385
604  7165
603  7635
602  7445
601  7805
600  7885
599  7510
598  7790
597  7470
596  7625
595  7195
594  7405
593  7730
592  7740
591  7635
590  7620
589  7940
588  7675
587  7770
586  7530
585  7840
584  7700
583  7725
582  7805
581  7690
580  7995
579  7590
578  7645
577  7380
576  8010
575  7310
574  7565
573  7290
572  7360
571  7500
570  7385
569  7250
568  7480
567  7790
566  8340
565  8105
564  8320
563  8390
562  8425
561  8670
560  8370
559  8195
558  7905
557  7860
556  7565
555  7505
554  7115
553  7205
552  6805
551  6550
550  6325
549  5870
548  5925
547  5680
546  5095
545  5115
544  5110
543  5145
542  5145
541  5715
540  7050
539  11290
538  22025
537  27375
536  20085
535  10020
534  5995
533  5295
532  5280
531  4780
530  4615
529  4885
528  5865
527  6100
526  5730
525  5340
524  4665
523  4355
522  4535
521  3910
520  4250
519  4410
518  3945
517  4180
516  4370
515  4060
514  3990
513  3945
512  4030
511  4300
510  3985
509  4235
508  3775
507  4005
506  4120
505  3935
504  4040
503  4245
502  4030
501  3955
500  4250
499  4065
498  3720
497  3935
496  4080
495  3815
494  4230
493  3930
492  3890
491  4010
490  3935
489  3800
488  3890
487  3865
486  3845
485  3755
484  3910
483  3815
482  3730
481  3815
480  3885
479  3735
478  3890
477  3755
476  3650
475  3990
474  3715
473  3885
472  3975
471  3785
470  3875
469  4095
468  3950
467  3805
466  4025
465  3825
464  3930
463  4055
462  3790
461  3650
460  3475
459  3665
458  3845
457  3915
456  3665
455  3750
454  3580
453  3495
452  3615
451  3710
450  3610
449  3840
448  3600
447  3870
446  3545
445  3605
444  3710
443  3885
442  3850
441  3800
440  3495
439  3740
438  3890
437  3840
436  3850
435  3685
434  3765
433  3760
432  3840
431  3685
430  3765
429  3585
428  3615
427  3410
426  3690
425  3680
424  3665
423  3340
422  3600
421  3575
420  3535
419  3605
418  3665
417  3570
416  3640
415  3725
414  3610
413  3485
412  3615
411  3475
410  3555
409  3425
408  3460
407  3685
406  3625
405  3610
404  3645
403  3625
402  3685
401  3285
400  3460
399  3830
398  3450
397  3465
396  3410
395  3390
394  3490
393  3335
392  3425
391  3410
390  3440
389  3125
388  3295
387  3615
386  3325
385  3240
384  3260
383  3275
382  3375
381  3270
380  3540
379  3365
378  3385
377  3375
376  3300
375  3545
374  3445
373  3330
372  3370
371  3400
370  3300
369  3255
368  3050
367  3465
366  3105
365  3260
364  3245
363  3330
362  3360
361  3220
360  3425
359  3215
358  3360
357  3270
356  2995
355  3425
354  3435
353  3135
352  3330
351  3360
350  3600
349  3305
348  3105
347  3445
346  3335
345  3500
344  3110
343  3355
342  3085
341  3005
340  3380
339  3040
338  3420
337  3020
336  3250
335  3010
334  3200
333  3140
332  3275
331  3440
330  2980
329  3090
328  3165
327  3430
326  3415
325  3200
324  3250
323  3345
322  3355
321  3185
320  3330
319  3395
318  3175
317  3205
316  3355
315  3230
314  3260
313  2990
312  3045
311  3415
310  3065
309  3305
308  3440
307  3065
306  3125
305  3105
304  3225
303  3030
302  3445
301  2985
300  3120
299  3170
298  3050
297  3055
296  3120
295  2955
294  2830
293  3525
292  3045
291  2950
290  3605
289  3425
288  3425
287  3690
286  3640
285  3640
284  3475
283  3200
282  2955
281  2980
280  3060
279  2870
278  2940
277  2925
276  3120
275  2720
274  2930
273  2900
272  2770
271  3070
270  2785
269  2835
268  3090
267  2740
266  2890
265  2730
264  2935
263  2960
262  2865
261  2795
260  2820
259  2990
258  2905
257  2915
256  2885
255  2645
254  2790
253  2805
252  2710
251  2730
250  2875
249  2820
248  2925
247  2775
246  2770
245  2845
244  3130
243  2795
242  2870
241  2885
240  2875
239  2840
238  2845
237  2805
236  2970
235  2665
234  2855
233  2865
232  2960
231  2780
230  2945
229  2920
228  2805
227  2790
226  3005
225  2680
224  2465
223  2610
222  2450
221  2565
220  2625
219  2610
218  2635
217  2495
216  2615
215  2515
214  2425
213  2540
212  2550
211  2335
210  2445
209  2670
208  2440
207  2740
206  2540
205  2410
204  2325
203  2390
202  2565
201  2485
200  2175
199  2475
198  2565
197  2525
196  2345
195  2380
194  2255
193  2465
192  2575
191  2435
190  2450
189  2480
188  2470
187  2390
186  2750
185  2460
184  2520
183  2625
182  2585
181  2820
180  2545
179  2800
178  2645
177  2615
176  2510
175  2385
174  2320
173  2230
172  2330
171  2455
170  2225
169  2375
168  2370
167  2185
166  2195
165  2030
164  2180
163  2245
162  2605
161  3430
160  4245
159  5305
158  4970
157  3780
156  2965
155  2485
154  2215
153  2275
152  2040
151  2030
150  2490
149  2255
148  2305
147  2135
146  2025
145  2175
144  1980
143  1745
142  1815
141  2100
140  1815
139  2010
138  2115
137  1970
136  1955
135  1845
134  2095
133  1895
132  2045
131  2185
130  1965
129  1880
128  2090
127  2005
126  1945
125  1780
124  2035
123  1920
122  1925
121  1785
120  1830
119  1735
118  1990
117  1705
116  1590
115  1555
114  1565
113  1640
112  1780
111  1810
110  2265
109  3515
108  5025
107  4505
106  2855
105  1785
104  1585
103  1515
102  1515
101  1425
100  1490
99  1635
98  1685
97  1770
96  1495
95  1420
94  1470
93  1470
92  1465
91  1335
90  1360
89  1540
88  1370
87  1430
86  1355
85  1375
84  1455
83  1540
82  1240
81  1405
80  1570
79  1340
78  1415
77  1310
76  1610
75  1220
74  1425
73  1350
72  1375
71  1455
70  1415
69  1400
68  1320
67  1390
66  1465
65  1350
64  1405
63  1500
62  1445
61  1390
60  1365
59  1345
58  1425
57  1455
56  1350
55  1400
54  1235
53  1390
52  1370
51  1470
50  1415
49  1510
48  1225
47  1450
46  1350
45  1515
44  1290
43  1605
42  1380
41  1285
40  1340
39  1185
38  1360
37  1275
36  1415
35  1320
34  1210
33  1360
32  1420
31  1820
30  1680
29  1860
28  1640
27  1465
26  1490
25  1645
24  1355
23  1360
22  1235
21  1170
20  1180
19  1235
18  1095
17  1205
16  1205
15  1190
14  1020
13  935
12  1180
11  1075
10  1070
9  995
8  930
7  855
6  865
5  905
4  965
3  980
2  980
1  1090
-2.2737368e-013  995
-1  1020
-2  1040
-3  930
-4  860

