# Created by:        SpecsLab Prodigy, Version 4.60.2-r85849 
#
# XY-Serializer Export Settings:
#   Comment Prefix:           #
#   Output meta data:         yes
#   Energy Axis:              Binding Energy
#   Count Rate:               Counts per Second
#   Separate Scan Data:       no
#   Separate Channel Data:    no
#   External Channel Data:    yes
#   Transmission Function:    no
#   ErrorBar:                 no
#   Operation Results:        yes
#   Time Zone Format:         UTC
#
# Group:             Spectrum Group
#
# Region:            C1s
# Acquisition Date:  12/17/21 18:20:03 UTC
# Analysis Method:   XPS
# Analyzer:          Phoibos 100 R6
# Analyzer Lens:     LargeArea:1.5kV
# Analyzer Slit:     1:0.2x20\B:open
# Scan Mode:         FixedAnalyzerTransmission
# Curves/Scan:       1
# Values/Curve:      131
# Dwell Time:        0.8
# Excitation Energy: 1486.61
# Binding Energy:    295
# Pass Energy:       30
# Bias Voltage:      90
# Detector Voltage:  2600
# Eff. Workfunction: 4.309
# Source:            X-Ray Dummy
# Comment:           
#
# Cycle: 0
# Number of Scans: 4
#
# Cycle: 0, Curve: 0
# Acquisition Date: 12/17/21 18:20:03 UTC
#
# ColumnLabels: energy counts/s
#
295  1006.875
294.9  1027.5
294.8  1025
294.7  1013.75
294.6  1032.8125
294.5  1012.8125
294.4  976.875
294.3  1032.5
294.2  1026.5625
294.1  1028.4375
294  1008.75
293.9  988.125
293.8  997.8125
293.7  1011.875
293.6  1023.75
293.5  1030.3125
293.4  1007.8125
293.3  1008.125
293.2  1037.1875
293.1  1030.625
293  1012.5
292.9  1020.625
292.8  1004.0625
292.7  1013.4375
292.6  1019.6875
292.5  1033.75
292.4  1024.375
292.3  1002.5
292.2  996.25
292.1  1041.25
292  1050.3125
291.9  1049.375
291.8  1015.3125
291.7  1035.3125
291.6  1075.9375
291.5  1060.625
291.4  1005.625
291.3  1047.5
291.2  1077.1875
291.1  1066.25
291  1025
290.9  1047.5
290.8  1064.0625
290.7  1046.5625
290.6  1066.25
290.5  1045.3125
290.4  1080.625
290.3  1095.625
290.2  1099.375
290.1  1102.8125
290  1086.875
289.9  1112.5
289.8  1136.5625
289.7  1184.0625
289.6  1201.5625
289.5  1228.75
289.4  1269.0625
289.3  1336.5625
289.2  1356.875
289.1  1388.4375
289  1427.5
288.9  1468.4375
288.8  1557.1875
288.7  1644.6875
288.6  1677.1875
288.5  1721.875
288.4  1773.125
288.3  1839.0625
288.2  1969.375
288.1  1994.0625
288  2059.375
287.9  2069.375
287.8  2130.9375
287.7  2209.0625
287.6  2192.8125
287.5  2193.125
287.4  2250
287.3  2242.8125
287.2  2235
287.1  2276.875
287  2259.375
286.9  2227.5
286.8  2273.4375
286.7  2248.4375
286.6  2216.25
286.5  2231.5625
286.4  2255
286.3  2165.625
286.2  2117.8125
286.1  2097.5
286  2113.75
285.9  1997.1875
285.8  1938.75
285.7  1880.9375
285.6  1799.6875
285.5  1742.1875
285.4  1645.3125
285.3  1589.6875
285.2  1560.9375
285.1  1465.9375
285  1410.3125
284.9  1352.1875
284.8  1275.9375
284.7  1254.375
284.6  1199.6875
284.5  1147.5
284.4  1125.625
284.3  1081.5625
284.2  1067.5
284.1  1011.875
284  1039.375
283.9  1010
283.8  1000.625
283.7  992.5
283.6  963.75
283.5  960.9375
283.4  979.0625
283.3  958.75
283.2  929.0625
283.1  937.5
283  932.5
282.9  935.9375
282.8  929.0625
282.7  909.375
282.6  930.9375
282.5  918.4375
282.4  890.3125
282.3  925.9375
282.2  915.625
282.1  934.0625
282  890

# Region:            Si2p
# Acquisition Date:  12/17/21 18:27:51 UTC
# Analysis Method:   XPS
# Analyzer:          Phoibos 100 R6
# Analyzer Lens:     LargeArea:1.5kV
# Analyzer Slit:     1:0.2x20\B:open
# Scan Mode:         FixedAnalyzerTransmission
# Curves/Scan:       1
# Values/Curve:      141
# Dwell Time:        0.8
# Excitation Energy: 1486.61
# Binding Energy:    112
# Pass Energy:       30
# Bias Voltage:      90
# Detector Voltage:  2600
# Eff. Workfunction: 4.309
# Source:            X-Ray Dummy
# Comment:           
#
# Cycle: 0
# Number of Scans: 4
#
# Cycle: 0, Curve: 0
# Acquisition Date: 12/17/21 18:27:51 UTC
#
# ColumnLabels: energy counts/s
#
112  500.3125
111.9  487.1875
111.8  478.75
111.7  489.375
111.6  504.0625
111.5  480.3125
111.4  484.6875
111.3  480.3125
111.2  485.3125
111.1  486.875
111  481.875
110.9  495.3125
110.8  503.75
110.7  485.3125
110.6  477.8125
110.5  490.625
110.4  488.125
110.3  479.0625
110.2  480.9375
110.1  500.3125
110  490.9375
109.9  476.25
109.8  485.625
109.7  472.8125
109.6  501.25
109.5  485
109.4  506.25
109.3  492.8125
109.2  498.75
109.1  504.0625
109  510.625
108.9  507.5
108.8  484.6875
108.7  512.5
108.6  519.6875
108.5  505
108.4  507.8125
108.3  522.8125
108.2  513.125
108.1  551.875
108  553.125
107.9  530.625
107.8  554.0625
107.7  553.75
107.6  570.625
107.5  578.75
107.4  608.4375
107.3  623.75
107.2  646.875
107.1  658.125
107  687.8125
106.9  703.125
106.8  776.5625
106.7  789.0625
106.6  821.25
106.5  890.9375
106.4  946.25
106.3  956.25
106.2  1030.625
106.1  1084.0625
106  1102.8125
105.9  1107.8125
105.8  1133.75
105.7  1170
105.6  1195
105.5  1219.375
105.4  1237.1875
105.3  1259.6875
105.2  1275.625
105.1  1240.625
105  1235.9375
104.9  1223.75
104.8  1203.4375
104.7  1138.125
104.6  1112.5
104.5  1055.3125
104.4  1007.1875
104.3  1000.3125
104.2  940.9375
104.1  910.3125
104  840.9375
103.9  833.4375
103.8  738.4375
103.7  715.9375
103.6  685.9375
103.5  641.5625
103.4  655
103.3  600
103.2  609.6875
103.1  570
103  585.9375
102.9  559.0625
102.8  512.8125
102.7  525
102.6  519.6875
102.5  503.75
102.4  508.75
102.3  495.3125
102.2  498.125
102.1  502.1875
102  443.125
101.9  497.1875
101.8  489.375
101.7  464.0625
101.6  473.125
101.5  478.4375
101.4  471.5625
101.3  474.0625
101.2  446.25
101.1  451.875
101  482.8125
100.9  469.375
100.8  451.25
100.7  461.875
100.6  468.4375
100.5  457.8125
100.4  465.3125
100.3  478.125
100.2  457.5
100.1  442.8125
100  458.75
99.9  479.0625
99.8  460.9375
99.7  470.9375
99.6  483.125
99.5  465.3125
99.4  482.8125
99.3  466.25
99.2  477.8125
99.1  479.6875
99  474.375
98.9  466.25
98.8  473.4375
98.7  463.75
98.6  479.6875
98.5  467.1875
98.4  465
98.3  445.3125
98.2  458.75
98.1  489.0625
98  470

# Region:            N1s
# Acquisition Date:  12/17/21 18:25:23 UTC
# Analysis Method:   XPS
# Analyzer:          Phoibos 100 R6
# Analyzer Lens:     LargeArea:1.5kV
# Analyzer Slit:     1:0.2x20\B:open
# Scan Mode:         FixedAnalyzerTransmission
# Curves/Scan:       1
# Values/Curve:      131
# Dwell Time:        0.8
# Excitation Energy: 1486.61
# Binding Energy:    408
# Pass Energy:       30
# Bias Voltage:      90
# Detector Voltage:  2600
# Eff. Workfunction: 4.309
# Source:            X-Ray Dummy
# Comment:           
#
# Cycle: 0
# Number of Scans: 6
#
# Cycle: 0, Curve: 0
# Acquisition Date: 12/17/21 18:25:23 UTC
#
# ColumnLabels: energy counts/s
#
408  1037.7083
407.9  1056.25
407.8  1023.5417
407.7  1056.875
407.6  1022.2917
407.5  1042.0833
407.4  1074.375
407.3  1009.7917
407.2  1020
407.1  1069.1667
407  1014.5833
406.9  1027.2917
406.8  1035.2083
406.7  1042.7083
406.6  1039.5833
406.5  1036.6667
406.4  1023.9583
406.3  1066.875
406.2  1060.8333
406.1  1036.6667
406  1064.7917
405.9  1028.75
405.8  1031.6667
405.7  1051.875
405.6  1049.5833
405.5  1087.5
405.4  1057.0833
405.3  1066.25
405.2  1023.125
405.1  1054.7917
405  1029.5833
404.9  1059.7917
404.8  1043.75
404.7  1070.625
404.6  1012.0833
404.5  1075
404.4  1029.375
404.3  1061.875
404.2  1068.5417
404.1  1051.25
404  1063.75
403.9  1075.625
403.8  1093.5417
403.7  1093.9583
403.6  1077.7083
403.5  1086.875
403.4  1091.25
403.3  1109.5833
403.2  1097.5
403.1  1108.75
403  1126.4583
402.9  1136.25
402.8  1138.3333
402.7  1170.2083
402.6  1175.625
402.5  1166.6667
402.4  1176.0417
402.3  1173.9583
402.2  1194.7917
402.1  1240
402  1214.1667
401.9  1209.5833
401.8  1196.25
401.7  1227.7083
401.6  1243.75
401.5  1252.7083
401.4  1277.9167
401.3  1269.1667
401.2  1247.2917
401.1  1231.875
401  1252.5
400.9  1229.1667
400.8  1264.375
400.7  1279.5833
400.6  1277.5
400.5  1261.6667
400.4  1257.5
400.3  1250
400.2  1240.8333
400.1  1194.1667
400  1227.2917
399.9  1208.3333
399.8  1169.375
399.7  1131.6667
399.6  1145.2083
399.5  1151.0417
399.4  1121.0417
399.3  1127.7083
399.2  1111.6667
399.1  1092.9167
399  1086.0417
398.9  1068.9583
398.8  1027.0833
398.7  1062.7083
398.6  1028.75
398.5  1044.1667
398.4  1043.125
398.3  1047.2917
398.2  1025.8333
398.1  1023.75
398  1034.7917
397.9  1033.3333
397.8  1029.5833
397.7  1017.9167
397.6  1034.5833
397.5  1037.7083
397.4  1049.5833
397.3  1000.8333
397.2  1030
397.1  1018.5417
397  1027.2917
396.9  1024.7917
396.8  1008.9583
396.7  1010.625
396.6  1030
396.5  991.04167
396.4  1001.0417
396.3  1052.2917
396.2  1024.375
396.1  1010.625
396  1029.1667
395.9  1020.2083
395.8  1001.6667
395.7  1021.0417
395.6  1040.625
395.5  1024.1667
395.4  1010.2083
395.3  984.58333
395.2  1024.7917
395.1  1028.5417
395  1016.875

# Region:            overview
# Acquisition Date:  12/17/21 18:02:42 UTC
# Analysis Method:   XPS
# Analyzer:          Phoibos 100 R6
# Analyzer Lens:     LargeArea:1.5kV
# Analyzer Slit:     1:0.2x20\B:open
# Scan Mode:         FixedAnalyzerTransmission
# Curves/Scan:       1
# Values/Curve:      1205
# Dwell Time:        0.2
# Excitation Energy: 1486.61
# Binding Energy:    1200
# Pass Energy:       50
# Bias Voltage:      90
# Detector Voltage:  2600
# Eff. Workfunction: 4.309
# Source:            X-Ray Dummy
# Comment:           
#
# Cycle: 0
# Number of Scans: 1
#
# Cycle: 0, Curve: 0
# Acquisition Date: 12/17/21 18:02:42 UTC
#
# ColumnLabels: energy counts/s
#
1200  8210
1199  8030
1198  8225
1197  8235
1196  8350
1195  8195
1194  8045
1193  8125
1192  8210
1191  8000
1190  7910
1189  8375
1188  8000
1187  7755
1186  8195
1185  8720
1184  8235
1183  8085
1182  7940
1181  7840
1180  8065
1179  7830
1178  7980
1177  8300
1176  7990
1175  7935
1174  8385
1173  8450
1172  8020
1171  8230
1170  8360
1169  7720
1168  8405
1167  7955
1166  8420
1165  8240
1164  8230
1163  8140
1162  8195
1161  8480
1160  8155
1159  7660
1158  7745
1157  8430
1156  7785
1155  8230
1154  8205
1153  8275
1152  8005
1151  8160
1150  8275
1149  8265
1148  8480
1147  7890
1146  7845
1145  7710
1144  8440
1143  8145
1142  7990
1141  8270
1140  8195
1139  7910
1138  8235
1137  8065
1136  8180
1135  8160
1134  8085
1133  7880
1132  8505
1131  8250
1130  8100
1129  8645
1128  8160
1127  7965
1126  7885
1125  8030
1124  8055
1123  8150
1122  8060
1121  8375
1120  8070
1119  8345
1118  8140
1117  8405
1116  8000
1115  8195
1114  8010
1113  8280
1112  7980
1111  7680
1110  8350
1109  8095
1108  8170
1107  8395
1106  7980
1105  8290
1104  8340
1103  7850
1102  8170
1101  7895
1100  8320
1099  8145
1098  8265
1097  7720
1096  8020
1095  8210
1094  7940
1093  7455
1092  7995
1091  8100
1090  8370
1089  7885
1088  7910
1087  7780
1086  7910
1085  7740
1084  8210
1083  8195
1082  7865
1081  8320
1080  7930
1079  8225
1078  8080
1077  7900
1076  8050
1075  8135
1074  7745
1073  8255
1072  8115
1071  8080
1070  8040
1069  8150
1068  7910
1067  7965
1066  8065
1065  8335
1064  8375
1063  8335
1062  8505
1061  7910
1060  8520
1059  8330
1058  8310
1057  8115
1056  8040
1055  8275
1054  7990
1053  8130
1052  7880
1051  8465
1050  8125
1049  8335
1048  8325
1047  8175
1046  8000
1045  7780
1044  8395
1043  8255
1042  8425
1041  8120
1040  7865
1039  8275
1038  8030
1037  8285
1036  8425
1035  8275
1034  7965
1033  7945
1032  8340
1031  8300
1030  8035
1029  8355
1028  8310
1027  8180
1026  8085
1025  8290
1024  7955
1023  8345
1022  8020
1021  8265
1020  8195
1019  8270
1018  8280
1017  8315
1016  7655
1015  8025
1014  8110
1013  7840
1012  8175
1011  7885
1010  7795
1009  8010
1008  8220
1007  7950
1006  8285
1005  8005
1004  8595
1003  8220
1002  8375
1001  7900
1000  8210
999  8135
998  8085
997  7930
996  7690
995  7650
994  7525
993  7200
992  7290
991  7365
990  7615
989  7555
988  7510
987  7785
986  7545
985  8220
984  8525
983  8445
982  8870
981  8865
980  8265
979  8535
978  7870
977  7750
976  7485
975  7370
974  7125
973  6895
972  6720
971  6740
970  6430
969  6405
968  6045
967  6425
966  6120
965  6180
964  6110
963  6235
962  6345
961  6215
960  6290
959  5895
958  6240
957  6165
956  6185
955  6320
954  6285
953  6275
952  6365
951  6480
950  5880
949  6190
948  6715
947  6135
946  6465
945  6145
944  6400
943  6480
942  6085
941  6095
940  6395
939  6055
938  6380
937  6235
936  6165
935  6125
934  6450
933  6155
932  5910
931  6125
930  6505
929  6165
928  5950
927  6480
926  6285
925  6115
924  6070
923  6375
922  5945
921  6095
920  6125
919  6205
918  6240
917  6345
916  5720
915  6050
914  6330
913  6075
912  5965
911  6130
910  6025
909  6310
908  6085
907  6195
906  6370
905  6725
904  6330
903  6355
902  5965
901  5950
900  5995
899  6445
898  6255
897  6050
896  6120
895  6295
894  6340
893  6315
892  6550
891  5880
890  6435
889  6600
888  6305
887  6330
886  6365
885  6160
884  6415
883  6215
882  6535
881  6240
880  6330
879  6375
878  6090
877  6500
876  6450
875  6400
874  6375
873  6615
872  6350
871  6130
870  6500
869  5930
868  6490
867  6340
866  6550
865  6325
864  6625
863  6170
862  6455
861  6345
860  6165
859  6450
858  6160
857  6060
856  6185
855  6290
854  6020
853  6290
852  6540
851  6995
850  6390
849  6665
848  6185
847  6090
846  6635
845  6250
844  6210
843  6735
842  6230
841  6195
840  6370
839  6200
838  6500
837  6710
836  6540
835  6275
834  6200
833  6165
832  6335
831  6440
830  6240
829  6360
828  6410
827  6510
826  6405
825  6230
824  6580
823  6460
822  6275
821  6450
820  6710
819  6070
818  6285
817  6630
816  6280
815  6705
814  6595
813  6545
812  6400
811  6580
810  6330
809  6365
808  6410
807  6745
806  6320
805  6590
804  6415
803  6355
802  6430
801  6390
800  6580
799  6385
798  6415
797  6480
796  6675
795  6545
794  6595
793  6545
792  6125
791  6590
790  6370
789  6565
788  6375
787  6755
786  6260
785  6485
784  6545
783  6485
782  6125
781  6485
780  6235
779  6430
778  6585
777  6505
776  6490
775  6750
774  6415
773  6250
772  6555
771  6290
770  6615
769  6510
768  6600
767  6295
766  6700
765  6435
764  6840
763  6510
762  6710
761  6695
760  6245
759  6675
758  6650
757  6495
756  6780
755  6370
754  6825
753  6725
752  6310
751  6530
750  6865
749  6270
748  6840
747  6525
746  6155
745  6695
744  6530
743  6595
742  6660
741  6705
740  6510
739  6705
738  6205
737  6350
736  6310
735  6630
734  6695
733  6535
732  6505
731  6255
730  6940
729  6655
728  6500
727  6345
726  6640
725  6745
724  6460
723  6575
722  6275
721  6660
720  6515
719  6700
718  6700
717  6795
716  6640
715  6460
714  6815
713  6575
712  6775
711  6505
710  6535
709  6545
708  6655
707  6550
706  6555
705  6480
704  6705
703  6670
702  6385
701  6580
700  6550
699  6515
698  6755
697  6670
696  6655
695  6440
694  6770
693  6700
692  6705
691  7195
690  6240
689  6635
688  6615
687  6720
686  6605
685  6345
684  6810
683  6780
682  6700
681  6805
680  7425
679  6660
678  6735
677  6825
676  6910
675  6700
674  6825
673  6610
672  6965
671  6625
670  6725
669  6825
668  7025
667  6475
666  6360
665  6945
664  6420
663  6875
662  7005
661  6685
660  6940
659  6530
658  6760
657  6640
656  6800
655  6895
654  7125
653  6980
652  6915
651  6755
650  6840
649  6715
648  6900
647  6725
646  6590
645  7090
644  6490
643  6710
642  6895
641  6570
640  6510
639  6600
638  6790
637  6600
636  7085
635  6905
634  6770
633  6735
632  6735
631  6575
630  7085
629  7170
628  6650
627  7025
626  6725
625  6720
624  6395
623  6935
622  6580
621  6750
620  6730
619  6560
618  6905
617  6810
616  6650
615  6505
614  7010
613  6685
612  6960
611  6670
610  6985
609  6810
608  6715
607  6630
606  6850
605  6495
604  6605
603  6810
602  6610
601  6500
600  6765
599  6660
598  6595
597  6840
596  6820
595  6585
594  6740
593  6485
592  6840
591  6760
590  6865
589  6650
588  6460
587  6560
586  6630
585  6525
584  6495
583  6670
582  6825
581  6660
580  6895
579  6905
578  7140
577  6635
576  6675
575  6420
574  6695
573  6490
572  6505
571  6280
570  6460
569  6550
568  6140
567  6630
566  6320
565  6605
564  6810
563  6930
562  6905
561  6945
560  6975
559  6930
558  7215
557  7155
556  7015
555  6870
554  6635
553  6500
552  6250
551  5815
550  5780
549  5505
548  5615
547  5200
546  5305
545  5225
544  4600
543  4570
542  5030
541  4255
540  4490
539  4745
538  5355
537  6765
536  10900
535  16680
534  15610
533  9955
532  5420
531  4750
530  4130
529  4360
528  3765
527  4050
526  4570
525  4705
524  4790
523  4560
522  4220
521  3805
520  3845
519  3570
518  3820
517  3705
516  3915
515  3785
514  3755
513  4000
512  3865
511  3395
510  3465
509  3700
508  3770
507  3675
506  3710
505  3705
504  3700
503  3790
502  3895
501  3715
500  3640
499  3750
498  3955
497  3770
496  3605
495  3725
494  3905
493  3590
492  3700
491  3515
490  3830
489  3735
488  3695
487  3620
486  3660
485  3505
484  3460
483  3505
482  3685
481  3520
480  3425
479  3630
478  3420
477  3645
476  3665
475  3285
474  3365
473  3455
472  3655
471  3640
470  3630
469  3425
468  3600
467  3550
466  3820
465  3565
464  3580
463  3420
462  3530
461  3520
460  3370
459  3365
458  3595
457  3385
456  3235
455  3520
454  3460
453  3450
452  3425
451  3260
450  3510
449  3235
448  3225
447  3505
446  3295
445  3340
444  3425
443  3310
442  3465
441  3345
440  3400
439  3515
438  3315
437  3120
436  3495
435  3195
434  3370
433  3350
432  3660
431  3460
430  3335
429  3280
428  3335
427  3170
426  3365
425  3235
424  3285
423  3570
422  3310
421  3340
420  3570
419  3300
418  3205
417  3095
416  3405
415  3255
414  3165
413  3330
412  3395
411  3200
410  3295
409  3325
408  3235
407  3285
406  3335
405  3325
404  3530
403  3520
402  4080
401  3905
400  3525
399  3355
398  3445
397  3480
396  3030
395  3120
394  3380
393  3540
392  2945
391  3355
390  3220
389  3040
388  3120
387  3130
386  3445
385  3025
384  3070
383  3240
382  3030
381  3025
380  3145
379  3175
378  3215
377  3200
376  3280
375  2990
374  3480
373  2950
372  3165
371  3080
370  3050
369  3175
368  3280
367  3165
366  3025
365  3090
364  3125
363  3210
362  3030
361  3115
360  3135
359  3265
358  3275
357  3035
356  3030
355  3165
354  3105
353  3285
352  3200
351  3145
350  3355
349  2990
348  3360
347  3145
346  3070
345  3235
344  3070
343  3195
342  3055
341  3210
340  2930
339  3250
338  3165
337  3185
336  3045
335  3240
334  3165
333  3120
332  3260
331  3325
330  3290
329  3175
328  3210
327  3330
326  3210
325  3440
324  3040
323  3055
322  3190
321  3130
320  3295
319  3345
318  3285
317  3385
316  3175
315  3185
314  3355
313  3195
312  3465
311  3270
310  3285
309  3325
308  3305
307  3215
306  3375
305  3275
304  3005
303  2900
302  3065
301  3145
300  2915
299  3005
298  2780
297  3075
296  3485
295  3225
294  3215
293  3015
292  3135
291  3380
290  3800
289  4450
288  5880
287  6645
286  5645
285  3980
284  3415
283  2700
282  2670
281  2985
280  2590
279  2825
278  2765
277  3020
276  3105
275  2685
274  2535
273  2590
272  2445
271  2490
270  2535
269  2435
268  2555
267  2705
266  2575
265  2570
264  2670
263  2470
262  2655
261  2555
260  2465
259  2295
258  2640
257  2465
256  2500
255  2455
254  2540
253  2405
252  2420
251  2630
250  2455
249  2620
248  2415
247  2585
246  2605
245  2685
244  2500
243  2675
242  2645
241  2675
240  2545
239  2375
238  2510
237  2405
236  2400
235  2585
234  2470
233  2420
232  2270
231  2625
230  2530
229  2425
228  2310
227  2610
226  2435
225  2295
224  2230
223  2510
222  2420
221  2275
220  2470
219  2400
218  2065
217  2155
216  2225
215  2140
214  2345
213  2115
212  2075
211  2415
210  2500
209  2455
208  2060
207  2205
206  2275
205  2175
204  2335
203  2440
202  2380
201  2360
200  2250
199  2185
198  2145
197  2265
196  2240
195  2190
194  2140
193  2200
192  2365
191  2180
190  2045
189  2245
188  2245
187  2190
186  2150
185  2215
184  2260
183  2290
182  2380
181  2255
180  2280
179  2340
178  2220
177  2230
176  2215
175  2270
174  2005
173  2140
172  2155
171  2145
170  2055
169  1930
168  1935
167  1850
166  1845
165  1960
164  1915
163  1910
162  1860
161  1900
160  2055
159  2240
158  2990
157  3325
156  3615
155  2840
154  2385
153  2085
152  2030
151  2065
150  1730
149  1850
148  1920
147  1825
146  2080
145  1995
144  1835
143  1635
142  1795
141  1555
140  1720
139  1650
138  1525
137  1605
136  1750
135  1560
134  1745
133  1795
132  1605
131  1860
130  1815
129  1815
128  1725
127  1885
126  1740
125  1615
124  1715
123  1665
122  1740
121  1525
120  1690
119  1485
118  1595
117  1545
116  1450
115  1555
114  1640
113  1355
112  1415
111  1465
110  1545
109  1370
108  1580
107  2315
106  3180
105  3125
104  2395
103  1650
102  1420
101  1370
100  1390
99  1240
98  1375
97  1515
96  1320
95  1330
94  1505
93  1345
92  1355
91  1205
90  1215
89  1315
88  1295
87  1290
86  1225
85  1280
84  1315
83  1060
82  1215
81  1285
80  1225
79  1280
78  1280
77  1240
76  1455
75  1285
74  1285
73  1175
72  1165
71  1250
70  1120
69  1295
68  1405
67  1260
66  1155
65  1180
64  1235
63  1145
62  1165
61  1140
60  1240
59  1240
58  1250
57  1055
56  1075
55  1200
54  1320
53  1255
52  1225
51  1180
50  1180
49  1145
48  1230
47  1175
46  1175
45  1170
44  1210
43  1000
42  1045
41  1125
40  1095
39  1055
38  1110
37  1225
36  1135
35  1055
34  1140
33  1075
32  1155
31  1060
30  1325
29  1305
28  1500
27  1410
26  1415
25  1145
24  995
23  1110
22  1030
21  1015
20  1020
19  1090
18  1075
17  1075
16  1030
15  1015
14  1035
13  1025
12  955
11  925
10  1095
9  1060
8  915
7  1030
6  825
5  910
4  835
3  815
2  970
1  845
-2.2737368e-013  785
-1  770
-2  870
-3  755
-4  800

# Region:            O1s
# Acquisition Date:  12/17/21 18:12:49 UTC
# Analysis Method:   XPS
# Analyzer:          Phoibos 100 R6
# Analyzer Lens:     LargeArea:1.5kV
# Analyzer Slit:     1:0.2x20\B:open
# Scan Mode:         FixedAnalyzerTransmission
# Curves/Scan:       1
# Values/Curve:      171
# Dwell Time:        0.8
# Excitation Energy: 1486.61
# Binding Energy:    545
# Pass Energy:       30
# Bias Voltage:      90
# Detector Voltage:  2600
# Eff. Workfunction: 4.309
# Source:            X-Ray Dummy
# Comment:           
#
# Cycle: 0
# Number of Scans: 2
#
# Cycle: 0, Curve: 0
# Acquisition Date: 12/17/21 18:12:49 UTC
#
# ColumnLabels: energy counts/s
#
545  1592.5
544.9  1521.25
544.8  1543.125
544.7  1560.625
544.6  1564.375
544.5  1470.625
544.4  1559.375
544.3  1507.5
544.2  1491.25
544.1  1491.875
544  1427.5
543.9  1519.375
543.8  1455
543.7  1401.875
543.6  1442.5
543.5  1460.625
543.4  1416.25
543.3  1495
543.2  1458.75
543.1  1435
543  1449.375
542.9  1430
542.8  1411.875
542.7  1441.25
542.6  1444.375
542.5  1411.25
542.4  1423.125
542.3  1374.375
542.2  1437.5
542.1  1406.25
542  1339.375
541.9  1423.125
541.8  1339.375
541.7  1381.875
541.6  1355.625
541.5  1389.375
541.4  1363.75
541.3  1361.875
541.2  1378.125
541.1  1388.75
541  1430
540.9  1389.375
540.8  1341.875
540.7  1384.375
540.6  1351.875
540.5  1406.25
540.4  1361.875
540.3  1331.875
540.2  1375.625
540.1  1421.25
540  1396.25
539.9  1349.375
539.8  1434.375
539.7  1358.75
539.6  1421.875
539.5  1418.125
539.4  1484.375
539.3  1423.125
539.2  1394.375
539.1  1422.5
539  1427.5
538.9  1360
538.8  1394.375
538.7  1457.5
538.6  1465
538.5  1448.75
538.4  1511.25
538.3  1519.375
538.2  1533.125
538.1  1545
538  1546.875
537.9  1511.875
537.8  1586.875
537.7  1557.5
537.6  1556.875
537.5  1678.75
537.4  1631.875
537.3  1643.125
537.2  1756.25
537.1  1759.375
537  1842.5
536.9  1900.625
536.8  2050
536.7  2111.25
536.6  2175
536.5  2335.625
536.4  2468.125
536.3  2610.625
536.2  2813.125
536.1  2960.625
536  3126.875
535.9  3512.5
535.8  3694.375
535.7  3876.25
535.6  4136.875
535.5  4583.75
535.4  4893.125
535.3  5136.875
535.2  5535
535.1  5755
535  5936.25
534.9  6230.625
534.8  6336.875
534.7  6592.5
534.6  6585
534.5  6706.875
534.4  6788.125
534.3  6675.625
534.2  6636.25
534.1  6261.875
534  6095.625
533.9  5868.125
533.8  5598.75
533.7  5308.75
533.6  4863.125
533.5  4643.75
533.4  4246.25
533.3  3936.875
533.2  3564.375
533.1  3242.5
533  2928.75
532.9  2690
532.8  2470.625
532.7  2287.5
532.6  2161.875
532.5  2075
532.4  1878.75
532.3  1788.75
532.2  1809.375
532.1  1648.75
532  1602.5
531.9  1572.5
531.8  1453.75
531.7  1565.625
531.6  1421.25
531.5  1471.25
531.4  1459.375
531.3  1405.625
531.2  1354.375
531.1  1408.125
531  1385
530.9  1385.625
530.8  1306.25
530.7  1357.5
530.6  1319.375
530.5  1323.125
530.4  1311.25
530.3  1301.875
530.2  1290
530.1  1288.125
530  1200.625
529.9  1278.125
529.8  1248.125
529.7  1229.375
529.6  1263.125
529.5  1299.375
529.4  1200
529.3  1256.875
529.2  1257.5
529.1  1185.625
529  1241.875
528.9  1193.125
528.8  1218.125
528.7  1273.75
528.6  1215.625
528.5  1223.75
528.4  1235
528.3  1293.75
528.2  1202.5
528.1  1205
528  1230.625

