# Created by:        SpecsLab Prodigy, Version 4.60.2-r85849 
#
# XY-Serializer Export Settings:
#   Comment Prefix:           #
#   Output meta data:         yes
#   Energy Axis:              Binding Energy
#   Count Rate:               Counts per Second
#   Separate Scan Data:       no
#   Separate Channel Data:    no
#   External Channel Data:    yes
#   Transmission Function:    no
#   ErrorBar:                 no
#   Operation Results:        yes
#   Time Zone Format:         UTC
#
# Group:             Spectrum Group
#
# Region:            Ba3d
# Acquisition Date:  12/23/21 09:07:54 UTC
# Analysis Method:   XPS
# Analyzer:          Phoibos 100 R6
# Analyzer Lens:     LargeArea:1.5kV
# Analyzer Slit:     1:0.2x20\B:open
# Scan Mode:         FixedAnalyzerTransmission
# Curves/Scan:       1
# Values/Curve:      111
# Dwell Time:        0.8
# Excitation Energy: 1486.61
# Binding Energy:    786
# Pass Energy:       30
# Bias Voltage:      90
# Detector Voltage:  2600
# Eff. Workfunction: 4.309
# Source:            X-Ray Dummy
# Comment:           
#
# Cycle: 0
# Number of Scans: 4
#
# Cycle: 0, Curve: 0
# Acquisition Date: 12/23/21 09:07:54 UTC
#
# ColumnLabels: energy counts/s
#
786  2399.0625
785.9  2492.5
785.8  2450
785.7  2443.4375
785.6  2467.5
785.5  2445.9375
785.4  2445.625
785.3  2425.3125
785.2  2511.25
785.1  2478.125
785  2510.3125
784.9  2515.3125
784.8  2595.625
784.7  2628.4375
784.6  2693.4375
784.5  2732.1875
784.4  2798.4375
784.3  2875.625
784.2  2946.25
784.1  3075
784  3074.6875
783.9  3255
783.8  3373.125
783.7  3508.75
783.6  3602.5
783.5  3740.625
783.4  3880.9375
783.3  4046.25
783.2  4137.8125
783.1  4278.4375
783  4261.875
782.9  4436.875
782.8  4401.5625
782.7  4411.25
782.6  4430.625
782.5  4369.375
782.4  4337.5
782.3  4190.625
782.2  4107.5
782.1  3974.375
782  3915.3125
781.9  3716.25
781.8  3571.25
781.7  3473.75
781.6  3318.125
781.5  3242.1875
781.4  3047.5
781.3  2981.25
781.2  2883.4375
781.1  2776.5625
781  2701.5625
780.9  2627.5
780.8  2575.3125
780.7  2568.4375
780.6  2506.875
780.5  2486.25
780.4  2461.5625
780.3  2462.1875
780.2  2364.375
780.1  2379.6875
780  2326.25
779.9  2315.625
779.8  2322.1875
779.7  2312.8125
779.6  2348.125
779.5  2273.125
779.4  2308.75
779.3  2264.0625
779.2  2311.5625
779.1  2220.9375
779  2260.9375
778.9  2240.9375
778.8  2295.625
778.7  2259.375
778.6  2221.875
778.5  2403.4375
778.4  2300.625
778.3  2205
778.2  2232.5
778.1  2216.5625
778  2207.8125
777.9  2249.0625
777.8  2207.1875
777.7  2157.8125
777.6  2215
777.5  2190.3125
777.4  2269.375
777.3  2261.25
777.2  2219.6875
777.1  2177.1875
777  2203.75
776.9  2198.75
776.8  2222.1875
776.7  2189.0625
776.6  2212.1875
776.5  2181.875
776.4  2156.875
776.3  2210.3125
776.2  2220
776.1  2195.625
776  2223.75
775.9  2223.4375
775.8  2189.0625
775.7  2202.8125
775.6  2180.9375
775.5  2186.25
775.4  2216.5625
775.3  2197.1875
775.2  2173.125
775.1  2179.0625
775  2191.5625

# Region:            Cl2p
# Acquisition Date:  12/23/21 09:22:58 UTC
# Analysis Method:   XPS
# Analyzer:          Phoibos 100 R6
# Analyzer Lens:     LargeArea:1.5kV
# Analyzer Slit:     1:0.2x20\B:open
# Scan Mode:         FixedAnalyzerTransmission
# Curves/Scan:       1
# Values/Curve:      91
# Dwell Time:        0.8
# Excitation Energy: 1486.61
# Binding Energy:    204
# Pass Energy:       30
# Bias Voltage:      90
# Detector Voltage:  2600
# Eff. Workfunction: 4.309
# Source:            X-Ray Dummy
# Comment:           
#
# Cycle: 0
# Number of Scans: 6
#
# Cycle: 0, Curve: 0
# Acquisition Date: 12/23/21 09:22:58 UTC
#
# ColumnLabels: energy counts/s
#
204  718.125
203.9  711.25
203.8  684.16667
203.7  683.125
203.6  718.75
203.5  702.70833
203.4  718.54167
203.3  709.16667
203.2  724.375
203.1  721.66667
203  747.29167
202.9  745.83333
202.8  752.70833
202.7  751.66667
202.6  743.33333
202.5  762.5
202.4  780.83333
202.3  781.04167
202.2  794.58333
202.1  778.75
202  803.125
201.9  785.83333
201.8  791.875
201.7  805.83333
201.6  848.125
201.5  800.625
201.4  806.04167
201.3  807.29167
201.2  820.20833
201.1  845
201  821.66667
200.9  852.91667
200.8  871.875
200.7  841.25
200.6  869.79167
200.5  852.91667
200.4  868.54167
200.3  853.54167
200.2  848.125
200.1  839.58333
200  823.125
199.9  821.25
199.8  800.83333
199.7  790.83333
199.6  770
199.5  779.16667
199.4  747.5
199.3  741.04167
199.2  746.04167
199.1  714.79167
199  710.625
198.9  709.58333
198.8  723.75
198.7  716.25
198.6  696.66667
198.5  706.66667
198.4  677.08333
198.3  688.125
198.2  681.875
198.1  675.83333
198  689.375
197.9  674.58333
197.8  688.75
197.7  678.54167
197.6  678.33333
197.5  677.29167
197.4  675
197.3  685.83333
197.2  694.79167
197.1  698.75
197  682.91667
196.9  692.91667
196.8  662.29167
196.7  670.625
196.6  696.04167
196.5  684.58333
196.4  680.41667
196.3  674.375
196.2  690.83333
196.1  677.29167
196  678.75
195.9  700.41667
195.8  684.79167
195.7  674.58333
195.6  665.83333
195.5  699.79167
195.4  689.375
195.3  695.625
195.2  696.25
195.1  661.875
195  698.54167

# Region:            C1s
# Acquisition Date:  12/23/21 09:24:44 UTC
# Analysis Method:   XPS
# Analyzer:          Phoibos 100 R6
# Analyzer Lens:     LargeArea:1.5kV
# Analyzer Slit:     1:0.2x20\B:open
# Scan Mode:         FixedAnalyzerTransmission
# Curves/Scan:       1
# Values/Curve:      131
# Dwell Time:        0.8
# Excitation Energy: 1486.61
# Binding Energy:    295
# Pass Energy:       30
# Bias Voltage:      90
# Detector Voltage:  2600
# Eff. Workfunction: 4.309
# Source:            X-Ray Dummy
# Comment:           
#
# Cycle: 0
# Number of Scans: 6
#
# Cycle: 0, Curve: 0
# Acquisition Date: 12/23/21 09:24:44 UTC
#
# ColumnLabels: energy counts/s
#
295  765.83333
294.9  775.20833
294.8  777.29167
294.7  776.66667
294.6  773.75
294.5  783.54167
294.4  781.04167
294.3  781.04167
294.2  775.20833
294.1  772.91667
294  754.79167
293.9  778.33333
293.8  783.75
293.7  791.04167
293.6  771.45833
293.5  782.08333
293.4  793.75
293.3  793.125
293.2  778.125
293.1  784.79167
293  756.25
292.9  791.66667
292.8  809.58333
292.7  788.95833
292.6  779.79167
292.5  811.04167
292.4  793.95833
292.3  775.41667
292.2  805.83333
292.1  815.20833
292  790.20833
291.9  799.375
291.8  794.375
291.7  806.45833
291.6  814.58333
291.5  836.04167
291.4  805.83333
291.3  833.54167
291.2  824.375
291.1  823.75
291  858.125
290.9  831.25
290.8  884.16667
290.7  898.54167
290.6  873.54167
290.5  924.79167
290.4  919.375
290.3  943.125
290.2  921.04167
290.1  975.83333
290  986.04167
289.9  1024.5833
289.8  1040.625
289.7  1101.875
289.6  1107.5
289.5  1178.5417
289.4  1187.5
289.3  1242.2917
289.2  1298.9583
289.1  1332.9167
289  1393.9583
288.9  1396.875
288.8  1437.5
288.7  1485.8333
288.6  1494.5833
288.5  1541.4583
288.4  1602.5
288.3  1610.2083
288.2  1618.75
288.1  1613.75
288  1624.375
287.9  1669.375
287.8  1667.2917
287.7  1658.75
287.6  1701.25
287.5  1667.0833
287.4  1657.7083
287.3  1636.25
287.2  1654.7917
287.1  1606.0417
287  1611.4583
286.9  1596.4583
286.8  1564.1667
286.7  1485.4167
286.6  1448.9583
286.5  1393.5417
286.4  1352.5
286.3  1289.375
286.2  1228.5417
286.1  1187.2917
286  1118.125
285.9  1080.2083
285.8  1004.5833
285.7  980.41667
285.6  953.33333
285.5  902.70833
285.4  855
285.3  822.5
285.2  811.875
285.1  814.375
285  770.41667
284.9  762.70833
284.8  780.41667
284.7  778.54167
284.6  748.75
284.5  740
284.4  734.79167
284.3  718.125
284.2  746.04167
284.1  717.08333
284  716.04167
283.9  712.5
283.8  699.58333
283.7  728.54167
283.6  733.95833
283.5  725.625
283.4  717.08333
283.3  729.375
283.2  736.66667
283.1  713.75
283  735.83333
282.9  711.04167
282.8  727.29167
282.7  724.375
282.6  728.75
282.5  712.5
282.4  725.41667
282.3  745.83333
282.2  741.25
282.1  736.45833
282  704.79167

# Region:            O1s
# Acquisition Date:  12/23/21 09:13:14 UTC
# Analysis Method:   XPS
# Analyzer:          Phoibos 100 R6
# Analyzer Lens:     LargeArea:1.5kV
# Analyzer Slit:     1:0.2x20\B:open
# Scan Mode:         FixedAnalyzerTransmission
# Curves/Scan:       1
# Values/Curve:      171
# Dwell Time:        0.8
# Excitation Energy: 1486.61
# Binding Energy:    545
# Pass Energy:       30
# Bias Voltage:      90
# Detector Voltage:  2600
# Eff. Workfunction: 4.309
# Source:            X-Ray Dummy
# Comment:           
#
# Cycle: 0
# Number of Scans: 4
#
# Cycle: 0, Curve: 0
# Acquisition Date: 12/23/21 09:13:14 UTC
#
# ColumnLabels: energy counts/s
#
545  1272.1875
544.9  1240.9375
544.8  1234.0625
544.7  1239.0625
544.6  1231.25
544.5  1181.5625
544.4  1191.875
544.3  1203.4375
544.2  1205.625
544.1  1215.3125
544  1195.3125
543.9  1187.5
543.8  1192.1875
543.7  1137.5
543.6  1195.625
543.5  1161.25
543.4  1164.6875
543.3  1173.4375
543.2  1201.5625
543.1  1155.9375
543  1142.8125
542.9  1151.875
542.8  1155
542.7  1141.5625
542.6  1125.625
542.5  1131.25
542.4  1145.9375
542.3  1144.0625
542.2  1150.3125
542.1  1148.4375
542  1119.6875
541.9  1129.375
541.8  1126.5625
541.7  1160.3125
541.6  1144.6875
541.5  1143.4375
541.4  1118.125
541.3  1120.9375
541.2  1136.875
541.1  1099.6875
541  1127.5
540.9  1107.1875
540.8  1120.3125
540.7  1100.9375
540.6  1155.625
540.5  1104.375
540.4  1131.875
540.3  1123.125
540.2  1120
540.1  1092.1875
540  1110.625
539.9  1146.5625
539.8  1156.5625
539.7  1134.6875
539.6  1165.3125
539.5  1161.5625
539.4  1153.125
539.3  1208.4375
539.2  1179.0625
539.1  1190
539  1182.5
538.9  1205
538.8  1191.25
538.7  1231.5625
538.6  1256.875
538.5  1264.6875
538.4  1248.4375
538.3  1296.5625
538.2  1296.875
538.1  1313.4375
538  1337.1875
537.9  1392.8125
537.8  1445
537.7  1434.6875
537.6  1455.3125
537.5  1518.125
537.4  1618.125
537.3  1620.3125
537.2  1771.5625
537.1  1861.5625
537  1984.6875
536.9  2198.125
536.8  2301.25
536.7  2518.75
536.6  2786.25
536.5  3027.1875
536.4  3286.875
536.3  3650.9375
536.2  4001.5625
536.1  4365.625
536  4732.5
535.9  5156.875
535.8  5598.75
535.7  5935.625
535.6  6337.1875
535.5  6685.3125
535.4  7010
535.3  7238.75
535.2  7285.9375
535.1  7428.75
535  7446.875
534.9  7343.125
534.8  7240
534.7  7162.5
534.6  6798.4375
534.5  6343.75
534.4  6086.5625
534.3  5595
534.2  5269.375
534.1  4835.9375
534  4459.0625
533.9  4045.3125
533.8  3662.8125
533.7  3330.3125
533.6  2968.125
533.5  2720.9375
533.4  2445.625
533.3  2217.5
533.2  1998.125
533.1  1924.6875
533  1812.5
532.9  1656.5625
532.8  1547.8125
532.7  1515.625
532.6  1405.9375
532.5  1363.4375
532.4  1351.875
532.3  1268.125
532.2  1277.8125
532.1  1182.8125
532  1210.3125
531.9  1181.875
531.8  1158.125
531.7  1147.5
531.6  1126.875
531.5  1086.875
531.4  1075.9375
531.3  1049.375
531.2  1050.3125
531.1  1049.6875
531  1038.75
530.9  1057.1875
530.8  996.25
530.7  1019.0625
530.6  1036.875
530.5  991.875
530.4  981.25
530.3  1004.0625
530.2  990.9375
530.1  990.3125
530  1001.875
529.9  1007.1875
529.8  995.625
529.7  994.0625
529.6  949.375
529.5  1007.1875
529.4  996.875
529.3  952.8125
529.2  990.3125
529.1  960.3125
529  954.375
528.9  950.625
528.8  964.375
528.7  971.5625
528.6  995.9375
528.5  964.375
528.4  964.6875
528.3  936.5625
528.2  924.0625
528.1  940.3125
528  938.75

# Region:            Si2p
# Acquisition Date:  12/23/21 09:15:09 UTC
# Analysis Method:   XPS
# Analyzer:          Phoibos 100 R6
# Analyzer Lens:     LargeArea:1.5kV
# Analyzer Slit:     1:0.2x20\B:open
# Scan Mode:         FixedAnalyzerTransmission
# Curves/Scan:       1
# Values/Curve:      141
# Dwell Time:        0.8
# Excitation Energy: 1486.61
# Binding Energy:    112
# Pass Energy:       30
# Bias Voltage:      90
# Detector Voltage:  2600
# Eff. Workfunction: 4.309
# Source:            X-Ray Dummy
# Comment:           
#
# Cycle: 0
# Number of Scans: 4
#
# Cycle: 0, Curve: 0
# Acquisition Date: 12/23/21 09:15:09 UTC
#
# ColumnLabels: energy counts/s
#
112  417.5
111.9  426.25
111.8  390
111.7  417.1875
111.6  408.125
111.5  393.4375
111.4  405.625
111.3  396.875
111.2  406.5625
111.1  405.3125
111  392.8125
110.9  400.9375
110.8  392.5
110.7  391.5625
110.6  425
110.5  401.5625
110.4  387.1875
110.3  410.3125
110.2  434.0625
110.1  389.0625
110  423.4375
109.9  407.1875
109.8  433.125
109.7  413.4375
109.6  401.5625
109.5  426.875
109.4  411.5625
109.3  409.0625
109.2  417.8125
109.1  413.4375
109  399.0625
108.9  435
108.8  428.4375
108.7  434.6875
108.6  447.5
108.5  427.1875
108.4  447.1875
108.3  447.1875
108.2  487.1875
108.1  471.25
108  460.9375
107.9  508.4375
107.8  528.4375
107.7  538.75
107.6  560.625
107.5  585.3125
107.4  639.0625
107.3  659.0625
107.2  709.375
107.1  731.25
107  779.375
106.9  893.125
106.8  883.125
106.7  973.125
106.6  1079.0625
106.5  1107.5
106.4  1147.8125
106.3  1212.1875
106.2  1248.75
106.1  1281.5625
106  1309.375
105.9  1314.6875
105.8  1357.1875
105.7  1331.25
105.6  1370.625
105.5  1333.75
105.4  1260.9375
105.3  1222.8125
105.2  1193.125
105.1  1173.4375
105  1084.0625
104.9  1061.5625
104.8  1041.25
104.7  953.4375
104.6  887.8125
104.5  813.75
104.4  786.25
104.3  710
104.2  694.6875
104.1  660.625
104  601.875
103.9  560.625
103.8  539.6875
103.7  536.25
103.6  489.0625
103.5  477.8125
103.4  449.6875
103.3  461.5625
103.2  454.375
103.1  436.5625
103  438.125
102.9  415.9375
102.8  432.8125
102.7  393.125
102.6  403.125
102.5  408.75
102.4  424.0625
102.3  407.1875
102.2  394.6875
102.1  398.75
102  408.75
101.9  408.4375
101.8  377.5
101.7  383.4375
101.6  369.0625
101.5  389.0625
101.4  379.6875
101.3  371.5625
101.2  404.375
101.1  382.8125
101  378.75
100.9  395.625
100.8  377.8125
100.7  368.125
100.6  369.375
100.5  367.5
100.4  373.4375
100.3  388.75
100.2  380
100.1  394.375
100  367.5
99.9  372.1875
99.8  383.75
99.7  382.8125
99.6  362.8125
99.5  378.125
99.4  367.5
99.3  376.5625
99.2  360.9375
99.1  375.9375
99  350
98.9  353.75
98.8  352.5
98.7  352.1875
98.6  362.5
98.5  350.9375
98.4  377.1875
98.3  391.25
98.2  375.9375
98.1  389.375
98  380.625

# Region:            N1s
# Acquisition Date:  12/23/21 09:30:04 UTC
# Analysis Method:   XPS
# Analyzer:          Phoibos 100 R6
# Analyzer Lens:     LargeArea:1.5kV
# Analyzer Slit:     1:0.2x20\B:open
# Scan Mode:         FixedAnalyzerTransmission
# Curves/Scan:       1
# Values/Curve:      131
# Dwell Time:        0.8
# Excitation Energy: 1486.61
# Binding Energy:    408
# Pass Energy:       30
# Bias Voltage:      90
# Detector Voltage:  2600
# Eff. Workfunction: 4.309
# Source:            X-Ray Dummy
# Comment:           
#
# Cycle: 0
# Number of Scans: 8
#
# Cycle: 0, Curve: 0
# Acquisition Date: 12/23/21 09:30:04 UTC
#
# ColumnLabels: energy counts/s
#
408  745.15625
407.9  752.34375
407.8  756.25
407.7  743.28125
407.6  739.375
407.5  742.03125
407.4  746.40625
407.3  762.1875
407.2  751.09375
407.1  750.3125
407  741.40625
406.9  748.4375
406.8  733.59375
406.7  765.3125
406.6  750.625
406.5  745.3125
406.4  731.71875
406.3  743.59375
406.2  744.53125
406.1  736.71875
406  746.09375
405.9  757.65625
405.8  755.625
405.7  743.75
405.6  770.15625
405.5  762.96875
405.4  740.3125
405.3  749.21875
405.2  745.46875
405.1  742.34375
405  776.71875
404.9  769.6875
404.8  744.21875
404.7  755.15625
404.6  766.25
404.5  789.6875
404.4  764.0625
404.3  757.96875
404.2  772.96875
404.1  776.40625
404  777.03125
403.9  779.375
403.8  788.75
403.7  813.28125
403.6  823.75
403.5  807.8125
403.4  831.40625
403.3  843.90625
403.2  848.59375
403.1  836.40625
403  862.65625
402.9  846.25
402.8  872.96875
402.7  858.4375
402.6  858.59375
402.5  861.71875
402.4  871.71875
402.3  866.875
402.2  889.84375
402.1  887.5
402  899.0625
401.9  866.09375
401.8  887.96875
401.7  901.09375
401.6  892.65625
401.5  879.375
401.4  905.9375
401.3  883.28125
401.2  888.4375
401.1  883.90625
401  870.9375
400.9  866.25
400.8  876.09375
400.7  837.8125
400.6  855.78125
400.5  847.03125
400.4  834.375
400.3  817.65625
400.2  819.6875
400.1  797.34375
400  775.78125
399.9  792.96875
399.8  778.28125
399.7  773.90625
399.6  760.15625
399.5  754.0625
399.4  745.78125
399.3  735.78125
399.2  761.25
399.1  732.5
399  739.53125
398.9  739.53125
398.8  741.09375
398.7  734.84375
398.6  733.90625
398.5  749.53125
398.4  702.1875
398.3  734.0625
398.2  727.8125
398.1  721.71875
398  736.09375
397.9  743.125
397.8  743.75
397.7  729.0625
397.6  722.8125
397.5  729.0625
397.4  737.5
397.3  716.25
397.2  725
397.1  724.6875
397  720
396.9  737.8125
396.8  722.1875
396.7  727.65625
396.6  722.65625
396.5  716.09375
396.4  723.28125
396.3  723.59375
396.2  706.71875
396.1  743.75
396  778.75
395.9  736.09375
395.8  722.8125
395.7  730.78125
395.6  742.8125
395.5  717.8125
395.4  762.65625
395.3  728.4375
395.2  722.5
395.1  712.5
395  751.25

# Region:            overview
# Acquisition Date:  12/23/21 08:45:19 UTC
# Analysis Method:   XPS
# Analyzer:          Phoibos 100 R6
# Analyzer Lens:     LargeArea:1.5kV
# Analyzer Slit:     1:0.2x20\B:open
# Scan Mode:         FixedAnalyzerTransmission
# Curves/Scan:       1
# Values/Curve:      1205
# Dwell Time:        0.2
# Excitation Energy: 1486.61
# Binding Energy:    1200
# Pass Energy:       50
# Bias Voltage:      90
# Detector Voltage:  2600
# Eff. Workfunction: 4.309
# Source:            X-Ray Dummy
# Comment:           
#
# Cycle: 0
# Number of Scans: 1
#
# Cycle: 0, Curve: 0
# Acquisition Date: 12/23/21 08:45:19 UTC
#
# ColumnLabels: energy counts/s
#
1200  8795
1199  8705
1198  8735
1197  8575
1196  8685
1195  8745
1194  8930
1193  8510
1192  8585
1191  8820
1190  8420
1189  8700
1188  8485
1187  8490
1186  8520
1185  8800
1184  8605
1183  8355
1182  8400
1181  8530
1180  9020
1179  8435
1178  8480
1177  8345
1176  8630
1175  8940
1174  8590
1173  8815
1172  8550
1171  8595
1170  8715
1169  8500
1168  8245
1167  8520
1166  8705
1165  8665
1164  8550
1163  8695
1162  8760
1161  8245
1160  8850
1159  8725
1158  8795
1157  8650
1156  8790
1155  8810
1154  8660
1153  8170
1152  8440
1151  8520
1150  8395
1149  8330
1148  8190
1147  8545
1146  8505
1145  8450
1144  8760
1143  8755
1142  8985
1141  8925
1140  8930
1139  9090
1138  8650
1137  8975
1136  8870
1135  8955
1134  8285
1133  8345
1132  8760
1131  8950
1130  8705
1129  8450
1128  8385
1127  8520
1126  8785
1125  8835
1124  8765
1123  8655
1122  9070
1121  8410
1120  8615
1119  9050
1118  8935
1117  8385
1116  8490
1115  8300
1114  8795
1113  8860
1112  8885
1111  8810
1110  8625
1109  8785
1108  8935
1107  9045
1106  8810
1105  8805
1104  8830
1103  8710
1102  8820
1101  8865
1100  8990
1099  8770
1098  8500
1097  8485
1096  8645
1095  8985
1094  8730
1093  8990
1092  8840
1091  8340
1090  9035
1089  8915
1088  8880
1087  8580
1086  8760
1085  8400
1084  9090
1083  8180
1082  8785
1081  8965
1080  9095
1079  8325
1078  9165
1077  9060
1076  8710
1075  8905
1074  8585
1073  8675
1072  8865
1071  9115
1070  9035
1069  9295
1068  9345
1067  9425
1066  9265
1065  9155
1064  9180
1063  9060
1062  8930
1061  8785
1060  8985
1059  8700
1058  8570
1057  9205
1056  8530
1055  9170
1054  8710
1053  8760
1052  8815
1051  8470
1050  8735
1049  8860
1048  8600
1047  8810
1046  8785
1045  8765
1044  8415
1043  8835
1042  8820
1041  8820
1040  8715
1039  8450
1038  8400
1037  8455
1036  8775
1035  8815
1034  8355
1033  8800
1032  8445
1031  8835
1030  8785
1029  8595
1028  9090
1027  8620
1026  8810
1025  8750
1024  8760
1023  8450
1022  8855
1021  8985
1020  8665
1019  8700
1018  8375
1017  8555
1016  8950
1015  8825
1014  8595
1013  7950
1012  8300
1011  8745
1010  8305
1009  8280
1008  8515
1007  9080
1006  9160
1005  8915
1004  9100
1003  9015
1002  9080
1001  8895
1000  8880
999  8595
998  8195
997  8420
996  8260
995  8125
994  7805
993  8065
992  7770
991  7780
990  7800
989  7850
988  7665
987  8020
986  8300
985  8110
984  9070
983  8900
982  9315
981  8835
980  8820
979  8560
978  7790
977  7795
976  7930
975  7445
974  7155
973  7325
972  6735
971  6870
970  6940
969  6380
968  6360
967  6405
966  6345
965  6060
964  6020
963  6520
962  6130
961  6380
960  6355
959  6175
958  6430
957  6260
956  6110
955  6290
954  6210
953  6655
952  6330
951  6765
950  6165
949  6190
948  6290
947  6280
946  6440
945  6185
944  6430
943  6265
942  6205
941  6100
940  6610
939  6170
938  6515
937  6285
936  6110
935  6715
934  6050
933  6540
932  6335
931  6240
930  6030
929  6255
928  6120
927  6370
926  6335
925  6705
924  6465
923  6270
922  6790
921  6585
920  6625
919  6435
918  6605
917  6745
916  7010
915  6530
914  6430
913  6500
912  6640
911  6610
910  7230
909  7045
908  6940
907  7365
906  7250
905  7175
904  7245
903  6875
902  6950
901  6915
900  6630
899  6945
898  6570
897  6760
896  6610
895  6425
894  6470
893  6740
892  7030
891  6545
890  6460
889  6660
888  6240
887  6175
886  6405
885  6135
884  5900
883  5795
882  6250
881  5880
880  6000
879  5900
878  6320
877  6155
876  6055
875  5950
874  5815
873  6355
872  6260
871  6040
870  6055
869  5980
868  5720
867  5855
866  6050
865  6235
864  6285
863  5825
862  6205
861  6085
860  6260
859  6200
858  6000
857  5980
856  6100
855  6180
854  5890
853  6305
852  6125
851  5940
850  5820
849  6320
848  6365
847  6235
846  6340
845  6530
844  6320
843  6205
842  6315
841  6210
840  6415
839  6605
838  6255
837  6270
836  6430
835  6455
834  6590
833  6480
832  6555
831  6200
830  6580
829  6450
828  6640
827  6355
826  6280
825  6670
824  6740
823  6590
822  6495
821  6560
820  6500
819  6565
818  6365
817  6300
816  6280
815  6600
814  6485
813  6875
812  6545
811  6635
810  6725
809  6330
808  6825
807  6740
806  6490
805  6760
804  6425
803  6380
802  6560
801  6610
800  7645
799  8730
798  9290
797  8490
796  6860
795  6905
794  6200
793  6305
792  6175
791  6550
790  6125
789  6435
788  6370
787  6430
786  6795
785  7110
784  8935
783  10135
782  9645
781  7285
780  6730
779  5900
778  6025
777  5700
776  6130
775  6110
774  6180
773  6305
772  6135
771  6345
770  6265
769  5930
768  5985
767  5670
766  5905
765  5920
764  5850
763  5490
762  6050
761  5530
760  6120
759  6015
758  5915
757  6430
756  5975
755  5615
754  5845
753  5905
752  5905
751  5825
750  5545
749  6120
748  6350
747  5835
746  5945
745  5905
744  5625
743  5430
742  5770
741  6045
740  5855
739  5735
738  6045
737  5940
736  5955
735  5745
734  5870
733  5710
732  5870
731  6075
730  5805
729  6165
728  6070
727  5920
726  6020
725  6120
724  6035
723  6320
722  6075
721  5940
720  5835
719  6075
718  6100
717  6015
716  6065
715  5770
714  6270
713  6135
712  6015
711  6105
710  5915
709  5915
708  6030
707  5995
706  6020
705  5955
704  5885
703  6060
702  5890
701  5515
700  5775
699  5815
698  6285
697  5845
696  6015
695  6135
694  6060
693  5780
692  5725
691  6305
690  6055
689  6195
688  6175
687  5780
686  5900
685  6060
684  6175
683  5980
682  5795
681  5900
680  6345
679  6135
678  5990
677  5945
676  6055
675  5700
674  5925
673  6270
672  5795
671  6385
670  6300
669  5875
668  6285
667  5960
666  5795
665  6240
664  5995
663  6200
662  5760
661  5940
660  6015
659  6080
658  6285
657  6155
656  6140
655  5815
654  5890
653  5945
652  6295
651  6295
650  6150
649  6435
648  6355
647  5660
646  6155
645  5945
644  6065
643  6125
642  5730
641  6290
640  6450
639  5990
638  6115
637  5830
636  6150
635  6135
634  6210
633  6020
632  5890
631  5955
630  6305
629  6130
628  6025
627  6125
626  6325
625  5930
624  6055
623  6200
622  6310
621  6370
620  6200
619  6035
618  5970
617  6265
616  5715
615  6290
614  6175
613  6070
612  6120
611  6305
610  5970
609  6255
608  6000
607  6090
606  6165
605  6115
604  6220
603  5990
602  6460
601  6215
600  6425
599  5955
598  6080
597  6285
596  6040
595  6105
594  6405
593  6340
592  6390
591  6260
590  6120
589  6390
588  6255
587  6455
586  5900
585  6235
584  6105
583  6425
582  6000
581  5950
580  6530
579  6105
578  6090
577  5670
576  5940
575  5705
574  5880
573  5800
572  5975
571  6040
570  5690
569  5595
568  5980
567  5755
566  6135
565  6120
564  6205
563  6355
562  6815
561  6285
560  6510
559  6675
558  6860
557  6655
556  6305
555  6020
554  5875
553  5565
552  5605
551  5465
550  4980
549  4910
548  4655
547  4490
546  4160
545  4290
544  3845
543  3755
542  3815
541  3760
540  4030
539  3870
538  4890
537  8440
536  14985
535  18165
534  12920
533  6195
532  4170
531  3670
530  3555
529  3120
528  3090
527  3305
526  3775
525  4175
524  3805
523  3325
522  3315
521  3110
520  2865
519  2785
518  2810
517  2870
516  2865
515  2935
514  2965
513  2935
512  2745
511  2970
510  2915
509  2565
508  2815
507  2985
506  2565
505  2920
504  2755
503  2595
502  2770
501  2815
500  3065
499  2935
498  2950
497  2970
496  2750
495  2640
494  2435
493  2760
492  2650
491  2535
490  2630
489  2815
488  2730
487  2555
486  2690
485  2635
484  2710
483  3055
482  2660
481  2805
480  2530
479  2670
478  2570
477  2490
476  2490
475  2520
474  2575
473  2530
472  2595
471  2830
470  2615
469  2690
468  2625
467  2605
466  2715
465  2745
464  2710
463  2605
462  2435
461  2590
460  2695
459  2650
458  2550
457  2540
456  2385
455  2425
454  2600
453  2380
452  2465
451  2335
450  2710
449  2575
448  2615
447  2545
446  2475
445  2470
444  2680
443  2400
442  2405
441  2495
440  2620
439  2555
438  2555
437  2510
436  2420
435  2425
434  2480
433  2650
432  2425
431  2440
430  2380
429  2685
428  2380
427  2520
426  2440
425  2455
424  2510
423  2325
422  2500
421  2440
420  2445
419  2535
418  2265
417  2345
416  2580
415  2295
414  2340
413  2540
412  2375
411  2305
410  2320
409  2455
408  2430
407  2300
406  2355
405  2625
404  2715
403  2935
402  2945
401  2845
400  2685
399  2325
398  2675
397  2415
396  2265
395  2290
394  2530
393  2515
392  2430
391  2460
390  2270
389  2310
388  2460
387  2295
386  2400
385  2310
384  2300
383  2385
382  2125
381  2485
380  2290
379  2450
378  2350
377  2370
376  2405
375  2130
374  2375
373  2495
372  2285
371  2305
370  2090
369  2250
368  2240
367  2240
366  2430
365  2425
364  2190
363  2505
362  1985
361  2415
360  2340
359  2290
358  2565
357  2010
356  2325
355  2195
354  2570
353  2370
352  2340
351  2495
350  2270
349  2350
348  2340
347  2400
346  2375
345  2255
344  2260
343  2470
342  2330
341  2370
340  2335
339  2420
338  2380
337  2395
336  2365
335  2380
334  2180
333  2060
332  2490
331  2155
330  2410
329  2345
328  2255
327  2365
326  2230
325  2400
324  2220
323  2435
322  2235
321  2715
320  2345
319  2575
318  2495
317  2555
316  2630
315  2405
314  2535
313  2360
312  2510
311  2345
310  2550
309  2365
308  2520
307  2300
306  2340
305  2465
304  2235
303  2300
302  2535
301  2240
300  2480
299  2390
298  2520
297  2425
296  2595
295  2385
294  2620
293  2655
292  2625
291  2840
290  3430
289  4290
288  4955
287  4610
286  3545
285  2535
284  2160
283  2265
282  2195
281  2290
280  2435
279  2460
278  2400
277  2535
276  2305
275  2240
274  2345
273  2525
272  2265
271  2500
270  2470
269  2185
268  2160
267  2295
266  2340
265  2235
264  2290
263  2205
262  2020
261  2175
260  2230
259  2295
258  2160
257  2185
256  2080
255  2200
254  2200
253  2045
252  2075
251  2350
250  2135
249  2095
248  2055
247  2140
246  2295
245  2230
244  2035
243  1995
242  2325
241  2110
240  2205
239  2120
238  2130
237  2245
236  2125
235  2175
234  2245
233  2360
232  2160
231  2355
230  2010
229  2110
228  2225
227  2095
226  1975
225  2050
224  2110
223  2200
222  2070
221  1885
220  1990
219  2055
218  2145
217  2000
216  2005
215  2150
214  2005
213  2140
212  2035
211  2265
210  2285
209  2020
208  2035
207  1950
206  2170
205  2055
204  2090
203  2195
202  2320
201  2385
200  2260
199  2095
198  2095
197  2185
196  2120
195  2065
194  2225
193  2020
192  2035
191  2075
190  2060
189  2045
188  2155
187  2060
186  2030
185  1975
184  1945
183  2245
182  2275
181  2505
180  2330
179  2265
178  2100
177  2075
176  1990
175  2030
174  1960
173  1875
172  1925
171  1995
170  1840
169  1785
168  1930
167  1600
166  1725
165  1575
164  1710
163  1745
162  1695
161  1700
160  2190
159  2440
158  3025
157  3920
156  3490
155  2475
154  1890
153  1715
152  1545
151  1745
150  1680
149  1665
148  1605
147  1715
146  1645
145  1550
144  1490
143  1485
142  1500
141  1415
140  1510
139  1435
138  1465
137  1575
136  1535
135  1565
134  1550
133  1605
132  1445
131  1690
130  1645
129  1475
128  1605
127  1520
126  1440
125  1425
124  1620
123  1350
122  1470
121  1410
120  1460
119  1395
118  1415
117  1260
116  1260
115  1210
114  1200
113  1275
112  1145
111  1250
110  1270
109  1320
108  1635
107  2445
106  3105
105  2940
104  1910
103  1290
102  1295
101  1110
100  1050
99  1185
98  1190
97  1250
96  1695
95  1695
94  1555
93  1605
92  1695
91  1430
90  1175
89  1040
88  1050
87  1100
86  1135
85  1095
84  1040
83  1030
82  980
81  1040
80  975
79  910
78  1005
77  980
76  945
75  990
74  1020
73  1060
72  1010
71  915
70  1050
69  970
68  1195
67  980
66  1035
65  1050
64  970
63  1000
62  975
61  1000
60  1050
59  920
58  1055
57  965
56  935
55  945
54  1050
53  1195
52  1030
51  1120
50  995
49  990
48  1060
47  990
46  955
45  970
44  1015
43  990
42  1035
41  1075
40  890
39  930
38  955
37  940
36  1000
35  1140
34  1090
33  970
32  950
31  1070
30  1200
29  1210
28  1430
27  1175
26  1050
25  1075
24  975
23  945
22  890
21  900
20  885
19  900
18  925
17  985
16  940
15  845
14  870
13  885
12  910
11  800
10  1000
9  850
8  885
7  725
6  770
5  810
4  770
3  775
2  710
1  645
-2.2737368e-013  675
-1  870
-2  685
-3  805
-4  770

