# Created by:        SpecsLab Prodigy, Version 4.60.2-r85849 
#
# XY-Serializer Export Settings:
#   Comment Prefix:           #
#   Output meta data:         yes
#   Energy Axis:              Binding Energy
#   Count Rate:               Counts per Second
#   Separate Scan Data:       no
#   Separate Channel Data:    no
#   External Channel Data:    yes
#   Transmission Function:    no
#   ErrorBar:                 no
#   Operation Results:        yes
#   Time Zone Format:         UTC
#
# Group:             Spectrum Group
#
# Region:            C1s
# Acquisition Date:  12/22/21 12:44:31 UTC
# Analysis Method:   XPS
# Analyzer:          Phoibos 100 R6
# Analyzer Lens:     LargeArea:1.5kV
# Analyzer Slit:     1:0.2x20\B:open
# Scan Mode:         FixedAnalyzerTransmission
# Curves/Scan:       1
# Values/Curve:      131
# Dwell Time:        0.8
# Excitation Energy: 1486.61
# Binding Energy:    295
# Pass Energy:       30
# Bias Voltage:      90
# Detector Voltage:  2600
# Eff. Workfunction: 4.309
# Source:            X-Ray Dummy
# Comment:           
#
# Cycle: 0
# Number of Scans: 20
#
# Cycle: 0, Curve: 0
# Acquisition Date: 12/22/21 12:44:31 UTC
#
# ColumnLabels: energy counts/s
#
295  764.6875
294.9  777.125
294.8  773.1875
294.7  776.125
294.6  768.125
294.5  777.25
294.4  765.125
294.3  764.625
294.2  773.8125
294.1  762.375
294  772.5
293.9  782.875
293.8  771.1875
293.7  772.6875
293.6  762.75
293.5  759.125
293.4  773.3125
293.3  776.5625
293.2  778.9375
293.1  776.6875
293  786.75
292.9  781.4375
292.8  773.625
292.7  775.0625
292.6  780.9375
292.5  792.6875
292.4  783.8125
292.3  779.75
292.2  783.0625
292.1  778.75
292  796.125
291.9  809.625
291.8  778.8125
291.7  803.875
291.6  798.5
291.5  796.6875
291.4  812.6875
291.3  809.125
291.2  821.5625
291.1  821.0625
291  837.0625
290.9  846.375
290.8  856
290.7  864.6875
290.6  878.8125
290.5  910.8125
290.4  980.25
290.3  936
290.2  988.125
290.1  1015.625
290  1045.25
289.9  1077.6875
289.8  1126.6875
289.7  1158.375
289.6  1210.125
289.5  1260.3125
289.4  1316.1875
289.3  1351.5625
289.2  1385.875
289.1  1437.125
289  1492
288.9  1521.625
288.8  1541.5
288.7  1563.5
288.6  1579.0625
288.5  1609.625
288.4  1600.875
288.3  1594.625
288.2  1610.1875
288.1  1614
288  1625.8125
287.9  1616.625
287.8  1620.1875
287.7  1592.75
287.6  1601.9375
287.5  1588.4375
287.4  1568.75
287.3  1557.6875
287.2  1538.125
287.1  1523.6875
287  1474.75
286.9  1442.6875
286.8  1423.75
286.7  1379
286.6  1337.75
286.5  1295.0625
286.4  1230.9375
286.3  1185.1875
286.2  1138.8125
286.1  1091.875
286  1021.75
285.9  979.4375
285.8  952
285.7  905.625
285.6  895.125
285.5  852.4375
285.4  830.9375
285.3  810.6875
285.2  801.8125
285.1  784.0625
285  798.25
284.9  760.0625
284.8  759.75
284.7  749.75
284.6  745.9375
284.5  740.5
284.4  733.3125
284.3  728.0625
284.2  720.75
284.1  730.4375
284  725
283.9  715.375
283.8  723.9375
283.7  724.0625
283.6  712.9375
283.5  702.375
283.4  704.1875
283.3  703.9375
283.2  720.25
283.1  701.75
283  701
282.9  711.25
282.8  705.125
282.7  708.5
282.6  708.125
282.5  701.0625
282.4  705.6875
282.3  697.375
282.2  698.125
282.1  710.375
282  706.8125

# Region:            Si2p
# Acquisition Date:  12/22/21 12:08:58 UTC
# Analysis Method:   XPS
# Analyzer:          Phoibos 100 R6
# Analyzer Lens:     LargeArea:1.5kV
# Analyzer Slit:     1:0.2x20\B:open
# Scan Mode:         FixedAnalyzerTransmission
# Curves/Scan:       1
# Values/Curve:      141
# Dwell Time:        0.8
# Excitation Energy: 1486.61
# Binding Energy:    112
# Pass Energy:       30
# Bias Voltage:      90
# Detector Voltage:  2600
# Eff. Workfunction: 4.309
# Source:            X-Ray Dummy
# Comment:           
#
# Cycle: 0
# Number of Scans: 10
#
# Cycle: 0, Curve: 0
# Acquisition Date: 12/22/21 12:08:58 UTC
#
# ColumnLabels: energy counts/s
#
112  391.875
111.9  397.5
111.8  398.625
111.7  402.375
111.6  400.75
111.5  397.375
111.4  407.375
111.3  399.125
111.2  400.375
111.1  398.625
111  408.5
110.9  399.25
110.8  411.125
110.7  406.375
110.6  396.75
110.5  451.125
110.4  414.875
110.3  402.75
110.2  401.25
110.1  405.625
110  407.5
109.9  410.75
109.8  411
109.7  412.625
109.6  400.375
109.5  402.375
109.4  417.625
109.3  415.25
109.2  409.25
109.1  430.625
109  435.75
108.9  440.625
108.8  426.125
108.7  440.75
108.6  435.125
108.5  456
108.4  475.25
108.3  495.25
108.2  495.375
108.1  521.375
108  557.125
107.9  570.125
107.8  628.375
107.7  650
107.6  669.25
107.5  741.25
107.4  799.75
107.3  852.125
107.2  905.5
107.1  969.125
107  1027.125
106.9  1122.5
106.8  1182
106.7  1236.75
106.6  1258.875
106.5  1338.875
106.4  1391.75
106.3  1418.875
106.2  1438.5
106.1  1473.5
106  1478.5
105.9  1460.75
105.8  1429.25
105.7  1413.875
105.6  1348.625
105.5  1303.5
105.4  1242.5
105.3  1177.375
105.2  1106
105.1  1032.25
105  999.25
104.9  923.625
104.8  865
104.7  797.5
104.6  750
104.5  696
104.4  657.25
104.3  615.375
104.2  585.125
104.1  541.375
104  514.875
103.9  515.875
103.8  497.375
103.7  465.375
103.6  462.75
103.5  439.375
103.4  445
103.3  427.375
103.2  412.75
103.1  406.875
103  395.625
102.9  408.75
102.8  430.75
102.7  391
102.6  383.375
102.5  383.875
102.4  395
102.3  374
102.2  379.75
102.1  369.125
102  416.25
101.9  379.75
101.8  381.875
101.7  380.75
101.6  367.875
101.5  378.125
101.4  368.625
101.3  377.625
101.2  369.125
101.1  375
101  374.75
100.9  369.75
100.8  357.375
100.7  374.125
100.6  368.25
100.5  364.25
100.4  368.25
100.3  369.5
100.2  373.75
100.1  371
100  359.875
99.9  362
99.8  370
99.7  362.125
99.6  374.375
99.5  355.25
99.4  366.5
99.3  374.25
99.2  355
99.1  367.375
99  369.5
98.9  358.875
98.8  365
98.7  373
98.6  376
98.5  368.125
98.4  368.125
98.3  371
98.2  368.875
98.1  373.5
98  382.375

# Region:            N1s
# Acquisition Date:  12/22/21 13:49:16 UTC
# Analysis Method:   XPS
# Analyzer:          Phoibos 100 R6
# Analyzer Lens:     LargeArea:1.5kV
# Analyzer Slit:     1:0.2x20\B:open
# Scan Mode:         FixedAnalyzerTransmission
# Curves/Scan:       1
# Values/Curve:      131
# Dwell Time:        0.8
# Excitation Energy: 1486.61
# Binding Energy:    408
# Pass Energy:       30
# Bias Voltage:      90
# Detector Voltage:  2600
# Eff. Workfunction: 4.309
# Source:            X-Ray Dummy
# Comment:           
#
# Cycle: 0
# Number of Scans: 40
#
# Cycle: 0, Curve: 0
# Acquisition Date: 12/22/21 13:49:16 UTC
#
# ColumnLabels: energy counts/s
#
408  760.15625
407.9  754.78125
407.8  754.40625
407.7  754
407.6  752.53125
407.5  748.78125
407.4  753.34375
407.3  760.78125
407.2  755.3125
407.1  752.28125
407  742.09375
406.9  752.59375
406.8  743.71875
406.7  764.40625
406.6  748.5625
406.5  755.25
406.4  759.21875
406.3  756.4375
406.2  753.75
406.1  753.59375
406  746.46875
405.9  756.0625
405.8  760.78125
405.7  762.96875
405.6  760.53125
405.5  757.125
405.4  752.40625
405.3  756.0625
405.2  760.71875
405.1  767.71875
405  766.75
404.9  767.28125
404.8  763.5625
404.7  777.15625
404.6  767.9375
404.5  780.21875
404.4  784.90625
404.3  791.375
404.2  797.15625
404.1  806.09375
404  817.875
403.9  818.34375
403.8  816.53125
403.7  832
403.6  830.3125
403.5  850.09375
403.4  858.71875
403.3  858.34375
403.2  866.0625
403.1  867.09375
403  872.84375
402.9  881.0625
402.8  886.0625
402.7  882.0625
402.6  893.59375
402.5  903.125
402.4  898.8125
402.3  901.84375
402.2  934.125
402.1  914.90625
402  909.625
401.9  933.0625
401.8  920.375
401.7  910.125
401.6  913.125
401.5  921.3125
401.4  903.1875
401.3  904.4375
401.2  900.53125
401.1  885.65625
401  882.96875
400.9  885.4375
400.8  872.90625
400.7  857.78125
400.6  843.1875
400.5  837.53125
400.4  829.28125
400.3  818.21875
400.2  804.375
400.1  797.28125
400  790.25
399.9  782.21875
399.8  783.125
399.7  769.9375
399.6  768.65625
399.5  763.28125
399.4  759.6875
399.3  748.28125
399.2  753.5
399.1  756.28125
399  757.65625
398.9  754.1875
398.8  745.21875
398.7  744.65625
398.6  743.75
398.5  743.75
398.4  746.375
398.3  743.9375
398.2  746.28125
398.1  751.84375
398  751.90625
397.9  743.3125
397.8  746.25
397.7  746.75
397.6  737.1875
397.5  743.375
397.4  752.3125
397.3  747.6875
397.2  733.21875
397.1  738.53125
397  744.28125
396.9  734.8125
396.8  742.78125
396.7  750.75
396.6  748.875
396.5  740.71875
396.4  741.15625
396.3  763.09375
396.2  734.21875
396.1  745.34375
396  738.4375
395.9  746.09375
395.8  733.1875
395.7  735.5625
395.6  744.75
395.5  735.71875
395.4  740.3125
395.3  740.53125
395.2  737.40625
395.1  737.125
395  743.3125

# Region:            overview
# Acquisition Date:  12/22/21 11:12:15 UTC
# Analysis Method:   XPS
# Analyzer:          Phoibos 100 R6
# Analyzer Lens:     LargeArea:1.5kV
# Analyzer Slit:     1:0.2x20\B:open
# Scan Mode:         FixedAnalyzerTransmission
# Curves/Scan:       1
# Values/Curve:      1205
# Dwell Time:        0.2
# Excitation Energy: 1486.61
# Binding Energy:    1200
# Pass Energy:       50
# Bias Voltage:      90
# Detector Voltage:  2600
# Eff. Workfunction: 4.309
# Source:            X-Ray Dummy
# Comment:           
#
# Cycle: 0
# Number of Scans: 1
#
# Cycle: 0, Curve: 0
# Acquisition Date: 12/22/21 11:12:15 UTC
#
# ColumnLabels: energy counts/s
#
1200  8945
1199  8510
1198  8375
1197  8795
1196  8610
1195  8430
1194  8540
1193  8605
1192  8460
1191  8595
1190  8420
1189  8470
1188  8695
1187  8620
1186  8405
1185  8590
1184  8800
1183  8690
1182  8810
1181  8700
1180  8590
1179  8440
1178  8820
1177  8410
1176  8210
1175  8650
1174  8390
1173  8560
1172  8615
1171  8430
1170  8675
1169  8675
1168  8750
1167  8320
1166  8205
1165  8520
1164  8505
1163  8505
1162  8780
1161  8290
1160  8600
1159  8380
1158  8415
1157  8575
1156  8620
1155  8515
1154  8790
1153  8790
1152  8300
1151  8655
1150  8270
1149  8280
1148  8360
1147  8595
1146  8295
1145  8170
1144  8590
1143  8355
1142  8540
1141  8500
1140  8580
1139  8175
1138  8610
1137  8640
1136  8465
1135  8640
1134  8700
1133  8330
1132  8265
1131  8655
1130  8575
1129  8220
1128  8925
1127  8420
1126  8555
1125  8525
1124  8410
1123  8675
1122  8290
1121  8460
1120  8560
1119  8640
1118  8310
1117  8525
1116  8165
1115  8335
1114  8470
1113  8310
1112  8690
1111  8755
1110  8550
1109  8470
1108  8335
1107  8635
1106  8720
1105  8340
1104  8355
1103  8425
1102  8700
1101  8385
1100  8355
1099  8180
1098  8550
1097  8430
1096  8380
1095  8545
1094  8515
1093  8435
1092  8390
1091  8100
1090  8285
1089  8430
1088  8420
1087  8510
1086  7880
1085  8220
1084  8365
1083  8300
1082  8410
1081  8540
1080  8145
1079  8350
1078  8445
1077  8290
1076  8285
1075  8180
1074  8590
1073  8230
1072  8375
1071  8645
1070  8560
1069  8295
1068  8125
1067  8395
1066  8205
1065  8080
1064  8440
1063  8375
1062  8290
1061  8190
1060  8450
1059  8220
1058  8470
1057  8230
1056  8695
1055  8385
1054  8495
1053  8455
1052  8480
1051  8700
1050  8105
1049  8050
1048  8550
1047  8570
1046  8940
1045  8490
1044  8845
1043  8090
1042  8285
1041  8755
1040  8395
1039  8615
1038  8840
1037  8395
1036  8370
1035  8545
1034  8450
1033  8140
1032  8700
1031  8590
1030  8355
1029  8015
1028  8650
1027  8375
1026  8650
1025  8555
1024  8485
1023  8635
1022  8395
1021  8615
1020  8930
1019  8665
1018  8595
1017  8490
1016  8385
1015  7930
1014  8240
1013  8655
1012  8160
1011  8180
1010  8805
1009  8905
1008  8485
1007  8335
1006  8370
1005  8705
1004  8990
1003  8895
1002  8695
1001  8680
1000  8485
999  8300
998  8095
997  7945
996  7615
995  7300
994  7890
993  7735
992  7680
991  7865
990  7540
989  7805
988  7795
987  8070
986  8510
985  8105
984  8545
983  8610
982  9065
981  9010
980  8390
979  8225
978  7710
977  7320
976  7225
975  6735
974  6565
973  6890
972  6335
971  5805
970  5915
969  5880
968  5945
967  5940
966  6225
965  5970
964  6060
963  5725
962  6105
961  5820
960  5930
959  5665
958  5890
957  5995
956  5865
955  5870
954  6105
953  6085
952  5925
951  5970
950  5895
949  5720
948  5935
947  5590
946  6045
945  5670
944  5650
943  5985
942  6120
941  6100
940  5495
939  5785
938  5895
937  5735
936  5775
935  5765
934  6365
933  5720
932  5715
931  6020
930  5760
929  5775
928  6035
927  5745
926  5620
925  6025
924  6400
923  6145
922  5990
921  5515
920  5785
919  5725
918  6035
917  5675
916  5580
915  5965
914  5730
913  5880
912  5785
911  6040
910  5765
909  5960
908  6050
907  5945
906  5955
905  6055
904  6210
903  5650
902  5605
901  5960
900  5970
899  5945
898  5720
897  5650
896  5505
895  5920
894  5785
893  6115
892  6120
891  6055
890  5675
889  5800
888  5670
887  5660
886  6020
885  5605
884  6130
883  6050
882  6085
881  5530
880  6050
879  6005
878  5870
877  5840
876  5735
875  5970
874  5750
873  5775
872  5790
871  5975
870  5810
869  5955
868  5860
867  6025
866  5850
865  5720
864  5955
863  5925
862  5660
861  5750
860  5960
859  5805
858  5805
857  5855
856  5890
855  5780
854  6140
853  5870
852  5730
851  5820
850  5870
849  5725
848  6010
847  5960
846  5860
845  5825
844  5725
843  5820
842  6150
841  5835
840  5665
839  5905
838  6025
837  5770
836  6165
835  6105
834  5830
833  6140
832  5845
831  5735
830  5885
829  6070
828  5865
827  5510
826  5845
825  5955
824  6045
823  5405
822  6070
821  5785
820  6150
819  5550
818  6060
817  5885
816  6110
815  5930
814  5925
813  5990
812  5820
811  6090
810  5855
809  5655
808  5775
807  5910
806  5710
805  5930
804  5900
803  5505
802  5735
801  6080
800  5905
799  6250
798  5720
797  5965
796  5990
795  5785
794  6035
793  6045
792  5850
791  5855
790  5935
789  5795
788  5785
787  5740
786  5790
785  5805
784  5705
783  6005
782  5805
781  5815
780  6005
779  5975
778  5680
777  5775
776  5815
775  5840
774  5850
773  5625
772  5990
771  6310
770  5725
769  6065
768  5945
767  5820
766  6240
765  5815
764  5985
763  6010
762  6240
761  5695
760  5730
759  6070
758  5890
757  6155
756  6150
755  5710
754  5500
753  5810
752  5725
751  6010
750  5880
749  6075
748  5710
747  5655
746  6055
745  6140
744  5910
743  5985
742  5795
741  6015
740  5965
739  6120
738  6050
737  6090
736  5845
735  5990
734  6130
733  5935
732  6120
731  6100
730  5845
729  6115
728  5845
727  6345
726  6215
725  6400
724  5825
723  6085
722  5890
721  6035
720  6065
719  6100
718  5960
717  5945
716  5850
715  5675
714  5795
713  6165
712  5900
711  5860
710  6060
709  6130
708  6170
707  6030
706  6280
705  5950
704  6390
703  6110
702  6385
701  6045
700  6025
699  6140
698  5845
697  5825
696  6410
695  5940
694  6185
693  6150
692  6110
691  6150
690  6395
689  6200
688  6130
687  5785
686  6160
685  5920
684  6030
683  6060
682  5940
681  5780
680  5785
679  6085
678  5905
677  5850
676  6095
675  6375
674  6160
673  5780
672  5555
671  6205
670  6235
669  5740
668  6135
667  6290
666  5735
665  6000
664  5915
663  6005
662  6005
661  6230
660  6120
659  6290
658  6250
657  6615
656  6200
655  6205
654  6415
653  6435
652  6385
651  5905
650  6205
649  6005
648  6090
647  6190
646  6325
645  5970
644  6060
643  6120
642  5910
641  6085
640  6195
639  6360
638  6270
637  6390
636  6150
635  6400
634  6100
633  6340
632  6075
631  6300
630  6240
629  6250
628  6315
627  6220
626  6095
625  6160
624  6325
623  6055
622  6305
621  6210
620  5900
619  6440
618  6045
617  6105
616  6390
615  6355
614  6490
613  6600
612  6595
611  6500
610  6040
609  6310
608  6390
607  6240
606  6140
605  6175
604  6555
603  6340
602  6270
601  6355
600  6315
599  5810
598  6330
597  6210
596  5895
595  6210
594  6250
593  6485
592  6400
591  6475
590  6415
589  6305
588  6600
587  6365
586  6915
585  6275
584  6575
583  6315
582  6230
581  6440
580  6505
579  6200
578  6290
577  6000
576  6260
575  6515
574  6560
573  6390
572  6310
571  6030
570  6285
569  5620
568  6220
567  6000
566  5645
565  6525
564  6435
563  6425
562  6485
561  6750
560  6785
559  6865
558  6960
557  6970
556  6840
555  6170
554  6025
553  5755
552  5205
551  5640
550  5050
549  5250
548  4965
547  4630
546  4350
545  4305
544  4025
543  3900
542  4070
541  3810
540  4230
539  4085
538  5530
537  10500
536  17780
535  19245
534  11055
533  5610
532  4095
531  3620
530  3505
529  3275
528  3490
527  3720
526  3930
525  3905
524  3915
523  3545
522  3080
521  3055
520  3010
519  3045
518  3005
517  3020
516  2965
515  2710
514  2835
513  2815
512  2920
511  2685
510  2845
509  2995
508  2855
507  2830
506  2680
505  2725
504  2725
503  2735
502  2910
501  2820
500  3075
499  2980
498  2855
497  2870
496  2715
495  2835
494  2635
493  2795
492  2575
491  2810
490  2675
489  2755
488  2740
487  2675
486  2755
485  2695
484  2565
483  2720
482  2875
481  2715
480  2725
479  2790
478  2365
477  2640
476  2665
475  2820
474  2820
473  2565
472  2565
471  2690
470  2620
469  2695
468  2450
467  2610
466  2805
465  2620
464  2680
463  2760
462  2625
461  2680
460  2530
459  2845
458  2420
457  2700
456  2520
455  2665
454  2400
453  2620
452  2635
451  2665
450  2490
449  2600
448  2535
447  2530
446  2625
445  2440
444  2475
443  2700
442  2615
441  2670
440  2550
439  2595
438  2445
437  2355
436  2520
435  2490
434  2455
433  2540
432  2495
431  2370
430  2445
429  2410
428  2620
427  2515
426  2560
425  2735
424  2690
423  2410
422  2380
421  2450
420  2560
419  2575
418  2655
417  2385
416  2720
415  2505
414  2420
413  2600
412  2135
411  2495
410  2520
409  2550
408  2500
407  2440
406  2560
405  2640
404  2850
403  3070
402  3010
401  2705
400  2770
399  2275
398  2505
397  2330
396  2525
395  2465
394  2475
393  2220
392  2690
391  2355
390  2365
389  2520
388  2425
387  2400
386  2560
385  2375
384  2300
383  2370
382  2560
381  2390
380  2390
379  2295
378  2265
377  2270
376  2455
375  2565
374  2360
373  2370
372  2345
371  2185
370  2230
369  2210
368  2415
367  2405
366  2345
365  2325
364  2190
363  2340
362  2390
361  2370
360  2280
359  2325
358  2295
357  2390
356  2345
355  2365
354  2380
353  2155
352  2420
351  2355
350  2400
349  2185
348  2560
347  2275
346  2520
345  2300
344  2330
343  2360
342  2030
341  2450
340  2430
339  2235
338  2350
337  2240
336  2330
335  2475
334  2360
333  2280
332  2445
331  2200
330  2435
329  2335
328  2490
327  2515
326  2155
325  2470
324  2340
323  2405
322  2510
321  2475
320  2370
319  2340
318  2435
317  2445
316  2370
315  2520
314  2550
313  2550
312  2360
311  2370
310  2345
309  2475
308  2340
307  2460
306  2575
305  2320
304  2545
303  2510
302  2375
301  2320
300  2385
299  2580
298  2290
297  2380
296  2460
295  2385
294  2505
293  2385
292  2395
291  2560
290  3625
289  4400
288  5020
287  4535
286  3110
285  2450
284  2275
283  2175
282  2460
281  2370
280  2395
279  2205
278  2090
277  2190
276  2255
275  2485
274  2180
273  2085
272  2245
271  2070
270  2225
269  2165
268  2130
267  2155
266  2100
265  2080
264  2035
263  2175
262  2195
261  1965
260  2010
259  2060
258  1985
257  2170
256  2175
255  2200
254  2130
253  2100
252  2180
251  2145
250  2120
249  1890
248  2015
247  2200
246  2180
245  2155
244  2095
243  1945
242  2145
241  2240
240  2345
239  2070
238  2045
237  2280
236  2195
235  2065
234  1990
233  2125
232  2070
231  2125
230  2240
229  2255
228  2150
227  2150
226  2050
225  2130
224  2270
223  2020
222  2080
221  2070
220  2100
219  2100
218  1850
217  1970
216  1840
215  1890
214  2125
213  1965
212  2010
211  2075
210  1990
209  1775
208  1820
207  1905
206  1945
205  2190
204  2030
203  1995
202  1800
201  1930
200  1880
199  2030
198  2175
197  1975
196  2225
195  1880
194  2070
193  1810
192  1850
191  1940
190  1950
189  1950
188  1925
187  1745
186  2070
185  2245
184  2180
183  2110
182  2095
181  2195
180  2220
179  2035
178  2030
177  2085
176  2075
175  1900
174  1905
173  2080
172  1955
171  1875
170  1965
169  2165
168  1765
167  1795
166  1690
165  1805
164  1735
163  1715
162  1795
161  1915
160  2235
159  2735
158  3555
157  4020
156  3410
155  2855
154  2015
153  1795
152  1705
151  1635
150  1715
149  1605
148  1625
147  1825
146  1685
145  1635
144  1465
143  1615
142  1460
141  1565
140  1320
139  1430
138  1485
137  1415
136  1455
135  1485
134  1490
133  1470
132  1610
131  1720
130  1565
129  1510
128  1685
127  1480
126  1445
125  1395
124  1520
123  1470
122  1455
121  1365
120  1375
119  1260
118  1305
117  1225
116  1265
115  1130
114  1175
113  1185
112  1210
111  1120
110  1225
109  1365
108  2130
107  2880
106  3575
105  2680
104  1585
103  1285
102  1220
101  1045
100  1205
99  1175
98  1165
97  1235
96  1260
95  1280
94  1230
93  1050
92  1015
91  1020
90  880
89  1095
88  985
87  920
86  1125
85  1045
84  865
83  1115
82  915
81  965
80  985
79  1035
78  930
77  975
76  1155
75  1030
74  995
73  1035
72  815
71  1000
70  1015
69  1090
68  1040
67  1005
66  1045
65  1020
64  1000
63  1080
62  910
61  955
60  945
59  1080
58  970
57  1060
56  945
55  1030
54  1025
53  1120
52  1070
51  1160
50  1040
49  955
48  945
47  1100
46  1130
45  1040
44  1010
43  930
42  935
41  950
40  1030
39  1040
38  915
37  1045
36  980
35  955
34  1095
33  1040
32  1065
31  985
30  1185
29  1325
28  1515
27  1260
26  1165
25  985
24  985
23  890
22  875
21  1035
20  930
19  855
18  1080
17  905
16  975
15  895
14  770
13  780
12  955
11  935
10  845
9  905
8  715
7  815
6  790
5  775
4  855
3  800
2  695
1  760
-2.2737368e-013  770
-1  690
-2  660
-3  760
-4  820

# Region:            O1s
# Acquisition Date:  12/22/21 13:41:36 UTC
# Analysis Method:   XPS
# Analyzer:          Phoibos 100 R6
# Analyzer Lens:     LargeArea:1.5kV
# Analyzer Slit:     1:0.2x20\B:open
# Scan Mode:         FixedAnalyzerTransmission
# Curves/Scan:       1
# Values/Curve:      171
# Dwell Time:        0.8
# Excitation Energy: 1486.61
# Binding Energy:    545
# Pass Energy:       30
# Bias Voltage:      90
# Detector Voltage:  2600
# Eff. Workfunction: 4.309
# Source:            X-Ray Dummy
# Comment:           
#
# Cycle: 0
# Number of Scans: 10
#
# Cycle: 0, Curve: 0
# Acquisition Date: 12/22/21 13:41:36 UTC
#
# ColumnLabels: energy counts/s
#
545  1264.375
544.9  1223.625
544.8  1262.625
544.7  1213.625
544.6  1248.25
544.5  1238
544.4  1206.75
544.3  1213.5
544.2  1229.625
544.1  1198.25
544  1212
543.9  1201.875
543.8  1190
543.7  1183.875
543.6  1176.25
543.5  1171.5
543.4  1209.375
543.3  1153
543.2  1178.125
543.1  1177.625
543  1185.125
542.9  1170
542.8  1169
542.7  1165
542.6  1167.5
542.5  1144.25
542.4  1133.25
542.3  1171.875
542.2  1159.75
542.1  1160.75
542  1176.75
541.9  1167.875
541.8  1171.25
541.7  1151.75
541.6  1153.5
541.5  1161.5
541.4  1157.25
541.3  1158.375
541.2  1170.25
541.1  1147.25
541  1160.5
540.9  1154.75
540.8  1184.625
540.7  1164.5
540.6  1167
540.5  1159.25
540.4  1167
540.3  1172.75
540.2  1184.25
540.1  1184.625
540  1188.625
539.9  1172.75
539.8  1211.375
539.7  1215.75
539.6  1207.875
539.5  1227.75
539.4  1224.625
539.3  1253.5
539.2  1241.125
539.1  1292.5
539  1284.125
538.9  1290.375
538.8  1293.375
538.7  1328.375
538.6  1352.125
538.5  1384.25
538.4  1327.5
538.3  1402.125
538.2  1408.25
538.1  1445.25
538  1478.75
537.9  1508.5
537.8  1592
537.7  1618.25
537.6  1717.125
537.5  1802.25
537.4  1947.625
537.3  2109.5
537.2  2244.375
537.1  2421.25
537  2655.875
536.9  2875.875
536.8  3167.125
536.7  3463.25
536.6  3808.625
536.5  4229.75
536.4  4707.375
536.3  5049.5
536.2  5511.125
536.1  5927.25
536  6403.375
535.9  6866.625
535.8  7160.625
535.7  7520.25
535.6  7858.625
535.5  8069.875
535.4  8166.625
535.3  8256.375
535.2  8161.375
535.1  8057.75
535  7847.375
534.9  7517.625
534.8  7147.375
534.7  6726.875
534.6  6304.125
534.5  5826
534.4  5340.5
534.3  4825.625
534.2  4391.875
534.1  4003.5
534  3570.375
533.9  3264.125
533.8  2919.375
533.7  2647.25
533.6  2407.75
533.5  2171.375
533.4  2011.125
533.3  1844
533.2  1721.875
533.1  1628.75
533  1542.125
532.9  1479.5
532.8  1423.5
532.7  1358.25
532.6  1322.875
532.5  1267.375
532.4  1253.5
532.3  1204
532.2  1188.875
532.1  1172.875
532  1145
531.9  1129.75
531.8  1123.125
531.7  1109.25
531.6  1090
531.5  1071.125
531.4  1078.625
531.3  1064
531.2  1049.625
531.1  1056.375
531  1022.75
530.9  1051.375
530.8  1016.875
530.7  997.375
530.6  1020.125
530.5  1026.75
530.4  1009.5
530.3  1008.25
530.2  1016.75
530.1  1021.875
530  1014.75
529.9  1012
529.8  998.125
529.7  990.625
529.6  1010.375
529.5  1010.875
529.4  1002.625
529.3  1004.125
529.2  994.75
529.1  987.25
529  954.125
528.9  973.75
528.8  967.125
528.7  982.5
528.6  983.875
528.5  954
528.4  953.875
528.3  967.75
528.2  958.75
528.1  957.75
528  972.75

