# Created by:        SpecsLab Prodigy, Version 4.60.2-r85849 
#
# XY-Serializer Export Settings:
#   Comment Prefix:           #
#   Output meta data:         yes
#   Energy Axis:              Binding Energy
#   Count Rate:               Counts per Second
#   Separate Scan Data:       no
#   Separate Channel Data:    no
#   External Channel Data:    yes
#   Transmission Function:    no
#   ErrorBar:                 no
#   Operation Results:        yes
#   Time Zone Format:         UTC
#
# Group:             Spectrum Group
#
# Region:            C1s
# Acquisition Date:  11/12/21 06:01:31 UTC
# Analysis Method:   XPS
# Analyzer:          Phoibos 100 R6
# Analyzer Lens:     LargeArea:1.5kV
# Analyzer Slit:     1:0.2x20\B:open
# Scan Mode:         FixedAnalyzerTransmission
# Curves/Scan:       1
# Values/Curve:      131
# Dwell Time:        0.8
# Excitation Energy: 1486.61
# Binding Energy:    295
# Pass Energy:       30
# Bias Voltage:      90
# Detector Voltage:  2600
# Eff. Workfunction: 4.309
# Source:            X-Ray Dummy
# Comment:           
#
# Cycle: 0
# Number of Scans: 100
#
# Cycle: 0, Curve: 0
# Acquisition Date: 11/12/21 06:01:31 UTC
#
# ColumnLabels: energy counts/s
#
295  159.8375
294.9  158.7125
294.8  161.175
294.7  157.525
294.6  159.5
294.5  159.1375
294.4  159.5375
294.3  157.95
294.2  157
294.1  158.825
294  159.0125
293.9  157.5375
293.8  161
293.7  158.0625
293.6  159.225
293.5  160.475
293.4  162.025
293.3  162.5625
293.2  164.2375
293.1  161.425
293  158.75
292.9  163.5875
292.8  162.825
292.7  165.5
292.6  163.45
292.5  165.55
292.4  167.1125
292.3  162.875
292.2  167.525
292.1  167.05
292  170.1125
291.9  169.4125
291.8  170.225
291.7  169.725
291.6  168.6875
291.5  171.475
291.4  170.1375
291.3  174.65
291.2  177.7375
291.1  176.925
291  182.4875
290.9  184.5625
290.8  187.5625
290.7  188.925
290.6  197.5
290.5  204.9125
290.4  208.7
290.3  212.725
290.2  222.15
290.1  233.6125
290  244.425
289.9  254.3125
289.8  266.0375
289.7  275.725
289.6  288.725
289.5  304.425
289.4  317.3
289.3  328.1125
289.2  343.225
289.1  353.7125
289  362.9625
288.9  369.1
288.8  374.5625
288.7  382.9125
288.6  388.9625
288.5  389.6125
288.4  390.675
288.3  390.55
288.2  390.55
288.1  391.2375
288  390.925
287.9  389.6625
287.8  386.675
287.7  387.075
287.6  385.075
287.5  382.45
287.4  375.6875
287.3  372.3125
287.2  369.4
287.1  361.45
287  351.4
286.9  344.6875
286.8  329.6
286.7  317.3875
286.6  303.975
286.5  289.275
286.4  274.0125
286.3  259.55
286.2  246.1875
286.1  230.55
286  216.1375
285.9  205.6875
285.8  197.575
285.7  188.85
285.6  180.3875
285.5  173.6375
285.4  168.3625
285.3  164.125
285.2  161.6125
285.1  159.5375
285  156.1875
284.9  154.4875
284.8  149.1125
284.7  149.875
284.6  151.225
284.5  148.0625
284.4  146.675
284.3  146.425
284.2  149.425
284.1  144.275
284  145.05
283.9  146.3125
283.8  145.55
283.7  143.7
283.6  143.375
283.5  144.7
283.4  142.325
283.3  143.2375
283.2  142.2
283.1  143.0375
283  142.6125
282.9  142.375
282.8  143.3875
282.7  143.125
282.6  140.6125
282.5  141.475
282.4  140.9375
282.3  143.75
282.2  142.825
282.1  142.8125
282  140.6375

# Region:            overview
# Acquisition Date:  11/11/21 18:46:55 UTC
# Analysis Method:   XPS
# Analyzer:          Phoibos 100 R6
# Analyzer Lens:     LargeArea:1.5kV
# Analyzer Slit:     1:0.2x20\B:open
# Scan Mode:         FixedAnalyzerTransmission
# Curves/Scan:       1
# Values/Curve:      1205
# Dwell Time:        0.2
# Excitation Energy: 1486.61
# Binding Energy:    1200
# Pass Energy:       50
# Bias Voltage:      90
# Detector Voltage:  2600
# Eff. Workfunction: 4.309
# Source:            X-Ray Dummy
# Comment:           
#
# Cycle: 0
# Number of Scans: 1
#
# Cycle: 0, Curve: 0
# Acquisition Date: 11/11/21 18:46:55 UTC
#
# ColumnLabels: energy counts/s
#
1200  6875
1199  6745
1198  6620
1197  6740
1196  6825
1195  6810
1194  6345
1193  6845
1192  6835
1191  6520
1190  6645
1189  6615
1188  6525
1187  6515
1186  6895
1185  6785
1184  6895
1183  6850
1182  6805
1181  6790
1180  6850
1179  6810
1178  6765
1177  6935
1176  6700
1175  6870
1174  6790
1173  6490
1172  6665
1171  7070
1170  6445
1169  6750
1168  6565
1167  6695
1166  6400
1165  6865
1164  6750
1163  6390
1162  6645
1161  6845
1160  6825
1159  6630
1158  6690
1157  6785
1156  6915
1155  7040
1154  6505
1153  6635
1152  6850
1151  6795
1150  6860
1149  6730
1148  6730
1147  6915
1146  6770
1145  6555
1144  6695
1143  6985
1142  6790
1141  6740
1140  6855
1139  6750
1138  6620
1137  6560
1136  6670
1135  7100
1134  6600
1133  6840
1132  6785
1131  6965
1130  6740
1129  6780
1128  7230
1127  6690
1126  6735
1125  6645
1124  6830
1123  6725
1122  7065
1121  6535
1120  6950
1119  6475
1118  6850
1117  6990
1116  6800
1115  6520
1114  6730
1113  6825
1112  6795
1111  6960
1110  6945
1109  7255
1108  7165
1107  7120
1106  6990
1105  6955
1104  6890
1103  6835
1102  6975
1101  6615
1100  6220
1099  6580
1098  6650
1097  6645
1096  6575
1095  7075
1094  6910
1093  6870
1092  6810
1091  6510
1090  7060
1089  6285
1088  7000
1087  6600
1086  7125
1085  6890
1084  6855
1083  6805
1082  6510
1081  6805
1080  6650
1079  6610
1078  6705
1077  6765
1076  6890
1075  6620
1074  6865
1073  6695
1072  6810
1071  6725
1070  7220
1069  6745
1068  6970
1067  6985
1066  6950
1065  6705
1064  7060
1063  6775
1062  6655
1061  6845
1060  6770
1059  6860
1058  6985
1057  7040
1056  6835
1055  6670
1054  6710
1053  6845
1052  6785
1051  6985
1050  7035
1049  6960
1048  7020
1047  6845
1046  6975
1045  6785
1044  6690
1043  6285
1042  7120
1041  7030
1040  6925
1039  6550
1038  6640
1037  6610
1036  6735
1035  6665
1034  7085
1033  7090
1032  6795
1031  6800
1030  6915
1029  7080
1028  6655
1027  6950
1026  6740
1025  6890
1024  7100
1023  6675
1022  6855
1021  7160
1020  6955
1019  7105
1018  6845
1017  6840
1016  6985
1015  6655
1014  6965
1013  6500
1012  6295
1011  6835
1010  6785
1009  7080
1008  6810
1007  7060
1006  6960
1005  6600
1004  6880
1003  6895
1002  7140
1001  6840
1000  6735
999  6350
998  6550
997  6375
996  6275
995  5865
994  6315
993  6035
992  6060
991  5800
990  6355
989  6265
988  6085
987  5995
986  6555
985  6730
984  7035
983  6980
982  7315
981  6730
980  6535
979  6235
978  6460
977  6160
976  6030
975  5720
974  5610
973  5495
972  4965
971  5270
970  5040
969  4745
968  4810
967  5235
966  4745
965  4875
964  4865
963  4555
962  4685
961  4935
960  4840
959  4945
958  4860
957  4910
956  4660
955  4775
954  4930
953  4700
952  4550
951  4565
950  4655
949  4785
948  4810
947  4895
946  5045
945  4530
944  4745
943  5095
942  4720
941  4770
940  4680
939  4520
938  4825
937  4380
936  5015
935  4835
934  4645
933  4560
932  4695
931  4730
930  4610
929  4895
928  4785
927  5065
926  4695
925  4920
924  5075
923  4600
922  4850
921  4950
920  4975
919  4795
918  4790
917  4800
916  4995
915  5020
914  4810
913  4785
912  5035
911  5010
910  4805
909  4940
908  5030
907  5115
906  4600
905  4680
904  4955
903  4880
902  4710
901  4920
900  4860
899  4930
898  5000
897  4900
896  4870
895  4970
894  5060
893  4720
892  4745
891  4730
890  4830
889  4745
888  5025
887  4920
886  4575
885  4770
884  4710
883  5155
882  4850
881  4865
880  4800
879  4925
878  4885
877  4795
876  4800
875  5045
874  4850
873  5025
872  5085
871  4920
870  4815
869  5130
868  5035
867  4935
866  5205
865  5000
864  5050
863  4900
862  4960
861  4965
860  5005
859  4835
858  4930
857  4885
856  5145
855  4915
854  5225
853  5120
852  4780
851  5120
850  5085
849  4660
848  4995
847  5070
846  4920
845  5155
844  5025
843  4825
842  5135
841  4860
840  5300
839  4995
838  4990
837  4925
836  5110
835  5155
834  5245
833  5025
832  5075
831  4855
830  4965
829  4975
828  5130
827  4965
826  5070
825  4780
824  4980
823  5005
822  5025
821  4990
820  4915
819  5035
818  4960
817  4780
816  4745
815  5375
814  5000
813  4870
812  5075
811  5230
810  5165
809  4680
808  5150
807  5095
806  4805
805  4900
804  5410
803  5015
802  5055
801  5145
800  5010
799  4780
798  5050
797  5245
796  5160
795  5015
794  4895
793  5070
792  5175
791  5200
790  5045
789  5050
788  5030
787  5095
786  5245
785  5045
784  5045
783  4940
782  4860
781  5065
780  5185
779  5065
778  5075
777  5430
776  5180
775  5300
774  5045
773  4970
772  5055
771  5125
770  5250
769  5255
768  5170
767  5215
766  5235
765  4970
764  4965
763  5220
762  5035
761  4950
760  5285
759  5230
758  5115
757  5065
756  5370
755  5440
754  4845
753  5170
752  5145
751  4890
750  5235
749  5080
748  4930
747  5375
746  4940
745  4850
744  4965
743  5455
742  5025
741  5395
740  5305
739  5050
738  5270
737  5135
736  5165
735  5290
734  5220
733  5035
732  5215
731  5465
730  5155
729  5130
728  5085
727  5130
726  5045
725  5285
724  5235
723  5300
722  5270
721  5080
720  5175
719  5190
718  5305
717  5310
716  5260
715  5575
714  5170
713  5130
712  5035
711  5280
710  5345
709  5320
708  5140
707  5240
706  5580
705  5065
704  5315
703  5335
702  5275
701  5240
700  5600
699  5445
698  5505
697  5425
696  5335
695  5275
694  5180
693  5505
692  5295
691  5295
690  5035
689  5145
688  5410
687  5315
686  5300
685  5535
684  5315
683  5425
682  4975
681  5435
680  5675
679  5565
678  5245
677  5180
676  5485
675  5565
674  5255
673  5440
672  5195
671  5260
670  5120
669  5485
668  5320
667  5340
666  5325
665  5200
664  5545
663  5290
662  5460
661  5200
660  5290
659  5425
658  5465
657  5570
656  5555
655  5370
654  5505
653  5485
652  5750
651  5255
650  5385
649  5360
648  5235
647  5605
646  5625
645  5405
644  5760
643  5610
642  5435
641  5345
640  5325
639  5465
638  5225
637  5530
636  5520
635  5445
634  5570
633  5490
632  5420
631  5625
630  5770
629  5410
628  5585
627  5415
626  5365
625  5630
624  5645
623  5430
622  5565
621  5650
620  5490
619  5385
618  5645
617  5545
616  5595
615  5875
614  5515
613  5120
612  5590
611  5730
610  5460
609  5720
608  5195
607  5625
606  5485
605  5865
604  5615
603  5595
602  5380
601  5560
600  5450
599  5435
598  5435
597  5255
596  5640
595  5715
594  5415
593  5630
592  5385
591  5285
590  5530
589  5555
588  5465
587  5445
586  5465
585  5935
584  5545
583  5575
582  5485
581  5500
580  5610
579  5360
578  5390
577  5530
576  5275
575  5225
574  5365
573  5310
572  4785
571  5200
570  5105
569  5065
568  5380
567  5225
566  5080
565  5545
564  5300
563  5545
562  5625
561  5735
560  6020
559  5885
558  5800
557  5825
556  5535
555  5275
554  5045
553  5240
552  4415
551  4565
550  4465
549  4395
548  4320
547  3985
546  3765
545  3610
544  3405
543  3285
542  3090
541  3275
540  3420
539  3710
538  4500
537  7735
536  13990
535  16515
534  9795
533  4295
532  3385
531  2820
530  2695
529  2670
528  2790
527  3030
526  3640
525  3650
524  3325
523  3105
522  2685
521  2575
520  2395
519  2340
518  2515
517  2380
516  2345
515  2520
514  2365
513  2520
512  2350
511  2445
510  2415
509  2495
508  2285
507  2275
506  2205
505  2360
504  2440
503  2450
502  2340
501  2475
500  2570
499  2310
498  2180
497  2270
496  2205
495  2345
494  2470
493  2155
492  2275
491  2300
490  2345
489  2285
488  2350
487  2405
486  2420
485  2270
484  2315
483  2245
482  2055
481  2260
480  2370
479  2175
478  2110
477  2240
476  2250
475  2130
474  2135
473  2310
472  2275
471  2275
470  2385
469  2370
468  2470
467  2360
466  2325
465  2315
464  2340
463  2615
462  2025
461  2150
460  2350
459  2005
458  2315
457  2105
456  2030
455  2100
454  2055
453  2160
452  2025
451  2250
450  2040
449  2245
448  2145
447  2095
446  2100
445  2055
444  2050
443  2165
442  2255
441  1960
440  2280
439  2330
438  2205
437  2110
436  2005
435  2215
434  2060
433  2210
432  2120
431  2170
430  2045
429  2210
428  1995
427  2320
426  2090
425  2085
424  2165
423  2145
422  2315
421  2155
420  1990
419  2210
418  1950
417  2315
416  1935
415  2120
414  2235
413  2005
412  2085
411  2165
410  2195
409  2335
408  2335
407  2185
406  2095
405  2310
404  2365
403  2610
402  2545
401  2475
400  2210
399  2150
398  2135
397  2105
396  2165
395  2005
394  2090
393  2005
392  2130
391  1960
390  2155
389  1905
388  2080
387  2010
386  2030
385  1925
384  2160
383  2100
382  1925
381  2110
380  2165
379  1900
378  2065
377  1960
376  1980
375  2180
374  2105
373  1900
372  2035
371  2160
370  1995
369  2120
368  1875
367  2165
366  2325
365  2085
364  2200
363  2015
362  2245
361  2190
360  1970
359  2090
358  2030
357  2045
356  2050
355  1935
354  2075
353  2020
352  2120
351  1970
350  2175
349  2210
348  2170
347  2185
346  2160
345  2230
344  2115
343  2065
342  1960
341  1980
340  2010
339  2115
338  2040
337  2160
336  1850
335  2120
334  2025
333  2255
332  2150
331  2220
330  2190
329  2215
328  2065
327  2105
326  2190
325  2245
324  2140
323  2220
322  2190
321  2090
320  2235
319  2230
318  2360
317  2160
316  2245
315  2165
314  2300
313  2280
312  2060
311  2365
310  2260
309  2235
308  2355
307  2065
306  2085
305  2305
304  2235
303  2065
302  2235
301  2270
300  2390
299  2150
298  2285
297  2275
296  2300
295  2140
294  2450
293  2220
292  2285
291  2595
290  3535
289  4825
288  5060
287  4575
286  3125
285  2200
284  2095
283  2080
282  2030
281  1890
280  1960
279  1990
278  2055
277  2010
276  1885
275  1885
274  1820
273  1925
272  1955
271  1770
270  1905
269  1700
268  1865
267  1960
266  2000
265  1990
264  1820
263  1890
262  1965
261  1880
260  2065
259  1820
258  1855
257  1920
256  1645
255  1610
254  1755
253  1900
252  1880
251  1870
250  1845
249  1850
248  1795
247  1975
246  1820
245  1905
244  1930
243  1990
242  1945
241  1900
240  1985
239  1900
238  1730
237  2025
236  1890
235  1890
234  1940
233  1925
232  1890
231  1920
230  1770
229  2050
228  1905
227  1770
226  1935
225  1965
224  1635
223  1895
222  1830
221  1800
220  1845
219  1860
218  1935
217  1590
216  1830
215  1780
214  1880
213  1875
212  1875
211  1635
210  1800
209  1915
208  1925
207  1830
206  1895
205  1855
204  1665
203  1745
202  1770
201  1790
200  1855
199  1865
198  1890
197  1895
196  1810
195  1815
194  1745
193  1865
192  1830
191  1785
190  1840
189  1730
188  1765
187  1805
186  1705
185  1715
184  1750
183  1910
182  1875
181  2060
180  1920
179  1965
178  1845
177  2030
176  1715
175  1610
174  1790
173  1735
172  1675
171  1600
170  1675
169  1615
168  1515
167  1520
166  1380
165  1505
164  1515
163  1490
162  1595
161  1610
160  1765
159  2125
158  2985
157  3425
156  3020
155  2225
154  1760
153  1580
152  1485
151  1605
150  1470
149  1375
148  1375
147  1590
146  1440
145  1490
144  1450
143  1285
142  1530
141  1390
140  1145
139  1205
138  1390
137  1320
136  1440
135  1200
134  1210
133  1390
132  1445
131  1475
130  1330
129  1360
128  1435
127  1435
126  1335
125  1525
124  1380
123  1260
122  1340
121  1195
120  1285
119  1245
118  1095
117  1150
116  1175
115  975
114  1060
113  1130
112  1170
111  945
110  995
109  1200
108  1545
107  2480
106  3160
105  2340
104  1355
103  915
102  985
101  960
100  905
99  1010
98  1030
97  1015
96  1060
95  1120
94  975
93  970
92  920
91  985
90  880
89  850
88  945
87  955
86  890
85  900
84  840
83  1015
82  775
81  815
80  960
79  900
78  890
77  865
76  990
75  970
74  905
73  890
72  915
71  885
70  855
69  900
68  920
67  865
66  900
65  830
64  970
63  840
62  950
61  900
60  930
59  980
58  915
57  915
56  930
55  935
54  970
53  905
52  1025
51  785
50  880
49  910
48  910
47  935
46  970
45  930
44  920
43  845
42  865
41  960
40  860
39  970
38  810
37  860
36  850
35  790
34  1040
33  850
32  945
31  1155
30  1000
29  1160
28  1305
27  1060
26  830
25  870
24  945
23  825
22  890
21  785
20  760
19  900
18  905
17  815
16  840
15  785
14  760
13  770
12  690
11  710
10  730
9  920
8  765
7  765
6  760
5  740
4  675
3  710
2  660
1  740
-2.2737368e-013  645
-1  620
-2  690
-3  560
-4  585

# Region:            N1s
# Acquisition Date:  11/12/21 08:00:54 UTC
# Analysis Method:   XPS
# Analyzer:          Phoibos 100 R6
# Analyzer Lens:     LargeArea:1.5kV
# Analyzer Slit:     1:0.2x20\B:open
# Scan Mode:         FixedAnalyzerTransmission
# Curves/Scan:       1
# Values/Curve:      131
# Dwell Time:        0.8
# Excitation Energy: 1486.61
# Binding Energy:    408
# Pass Energy:       30
# Bias Voltage:      90
# Detector Voltage:  2600
# Eff. Workfunction: 4.309
# Source:            X-Ray Dummy
# Comment:           
#
# Cycle: 0
# Number of Scans: 165
#
# Cycle: 0, Curve: 0
# Acquisition Date: 11/12/21 08:00:54 UTC
#
# ColumnLabels: energy counts/s
#
408  90.924242
407.9  91.378788
407.8  90.651515
407.7  89.30303
407.6  90.462121
407.5  91.75
407.4  90.568182
407.3  90.681818
407.2  91.742424
407.1  92.25
407  89.583333
406.9  91.537879
406.8  89.780303
406.7  90.265152
406.6  91.098485
406.5  91.060606
406.4  90.742424
406.3  90.856061
406.2  91.893939
406.1  90.765152
406  90.590909
405.9  91.075758
405.8  92.371212
405.7  92.810606
405.6  91.651515
405.5  91.310606
405.4  91.409091
405.3  91.69697
405.2  90.462121
405.1  91.462121
405  93.060606
404.9  92.492424
404.8  90.257576
404.7  93.212121
404.6  94.189394
404.5  94.257576
404.4  95.984848
404.3  97.015152
404.2  96.765152
404.1  97.689394
404  99.659091
403.9  102.30303
403.8  101.34091
403.7  103.34091
403.6  102.96212
403.5  105.96212
403.4  109.04545
403.3  108.88636
403.2  108.14394
403.1  113.87879
403  109.27273
402.9  112.87121
402.8  113.65152
402.7  112.96212
402.6  115.82576
402.5  116.09848
402.4  116.2803
402.3  113.90909
402.2  114.09848
402.1  116.09091
402  118.06818
401.9  117.30303
401.8  117.93182
401.7  117.09848
401.6  117.09091
401.5  116.57576
401.4  115.09091
401.3  116.34848
401.2  114.67424
401.1  112.69697
401  111.03788
400.9  109.79545
400.8  108.50758
400.7  104.62879
400.6  104.14394
400.5  102.74242
400.4  101.28788
400.3  101.06818
400.2  97.159091
400.1  96.113636
400  94.424242
399.9  93.295455
399.8  93.742424
399.7  92.643939
399.6  91.659091
399.5  92.272727
399.4  89.787879
399.3  90.5
399.2  90.060606
399.1  91.015152
399  90.878788
398.9  89.69697
398.8  88.681818
398.7  90.121212
398.6  89
398.5  89.537879
398.4  89.772727
398.3  89.386364
398.2  87.80303
398.1  90.022727
398  88.44697
397.9  90.272727
397.8  89.060606
397.7  87.613636
397.6  88.325758
397.5  90.810606
397.4  87.863636
397.3  89.742424
397.2  88.69697
397.1  88.878788
397  89.015152
396.9  89.742424
396.8  87.424242
396.7  90.537879
396.6  87.651515
396.5  88.507576
396.4  87.204545
396.3  89.128788
396.2  89.689394
396.1  88.234848
396  88.757576
395.9  88.022727
395.8  88.734848
395.7  89.598485
395.6  88.787879
395.5  87.977273
395.4  87.992424
395.3  89.568182
395.2  87.636364
395.1  87.772727
395  89.159091

# Region:            O1s
# Acquisition Date:  11/12/21 06:05:37 UTC
# Analysis Method:   XPS
# Analyzer:          Phoibos 100 R6
# Analyzer Lens:     LargeArea:1.5kV
# Analyzer Slit:     1:0.2x20\B:open
# Scan Mode:         FixedAnalyzerTransmission
# Curves/Scan:       1
# Values/Curve:      171
# Dwell Time:        0.8
# Excitation Energy: 1486.61
# Binding Energy:    545
# Pass Energy:       30
# Bias Voltage:      90
# Detector Voltage:  2600
# Eff. Workfunction: 4.309
# Source:            X-Ray Dummy
# Comment:           
#
# Cycle: 0
# Number of Scans: 100
#
# Cycle: 0, Curve: 0
# Acquisition Date: 11/12/21 06:05:37 UTC
#
# ColumnLabels: energy counts/s
#
545  246.1
544.9  241.2625
544.8  242.1375
544.7  238.4625
544.6  239.025
544.5  240.3375
544.4  235.325
544.3  233.5875
544.2  233.475
544.1  229.825
544  234.55
543.9  226.825
543.8  230.35
543.7  228.325
543.6  226.45
543.5  229.0125
543.4  224.3125
543.3  227.275
543.2  227.3
543.1  225.2875
543  225.1375
542.9  225.3875
542.8  224.6
542.7  224.3
542.6  224.55
542.5  222.6
542.4  223.8375
542.3  222.45
542.2  224.9375
542.1  222.6875
542  225.525
541.9  223.425
541.8  220.35
541.7  225.1375
541.6  225.7625
541.5  224.7125
541.4  224.4875
541.3  221.75
541.2  224.75
541.1  222.9375
541  223.7
540.9  224.85
540.8  223.4875
540.7  224.5125
540.6  228.9
540.5  226.8875
540.4  229.625
540.3  225.7875
540.2  226.3
540.1  230.2
540  229.9
539.9  230.175
539.8  230.175
539.7  235.9625
539.6  232.55
539.5  232.2375
539.4  234.4
539.3  241
539.2  238.4
539.1  239.35
539  239.85
538.9  243.1
538.8  245.7375
538.7  245.1625
538.6  248.3375
538.5  251.7625
538.4  256.025
538.3  258.275
538.2  261.175
538.1  264.2375
538  269.9875
537.9  276.55
537.8  287.2
537.7  292.6125
537.6  300.575
537.5  318.325
537.4  331.9125
537.3  351.075
537.2  377.925
537.1  404.075
537  440.3
536.9  472.2125
536.8  497.8375
536.7  544.425
536.6  603.775
536.5  662.3125
536.4  733.825
536.3  799.9875
536.2  886.275
536.1  961.4125
536  1049.9125
535.9  1129.0375
535.8  1206.8625
535.7  1287.3
535.6  1348.8875
535.5  1401.85
535.4  1443.8875
535.3  1462.4375
535.2  1462.15
535.1  1451.9375
535  1424.2625
534.9  1379.5
534.8  1323.5625
534.7  1253.4625
534.6  1168.4875
534.5  1084.9625
534.4  993.4
534.3  909.75
534.2  820.6125
534.1  740.175
534  671.5625
533.9  591.3375
533.8  531.6375
533.7  479.725
533.6  433.65
533.5  397.375
533.4  364.6125
533.3  336.2625
533.2  314.1
533.1  294.8875
533  276.25
532.9  266.125
532.8  253.6125
532.7  241.6375
532.6  236.4125
532.5  229.6125
532.4  222.9125
532.3  215.575
532.2  212.2625
532.1  207.125
532  205.325
531.9  205.025
531.8  202.175
531.7  199.7875
531.6  196.2
531.5  195.4875
531.4  190.2
531.3  186.275
531.2  187.9625
531.1  185.025
531  185.95
530.9  183.675
530.8  186.6875
530.7  182.5125
530.6  185.475
530.5  184.2875
530.4  184.2125
530.3  183.275
530.2  179.9875
530.1  183.2375
530  182.075
529.9  182.1
529.8  183.425
529.7  182.7875
529.6  182.9875
529.5  180.8
529.4  176.9375
529.3  177.875
529.2  180.0625
529.1  180.0875
529  179.4375
528.9  179.375
528.8  178.8375
528.7  178.825
528.6  179.4875
528.5  174.5
528.4  174.3
528.3  174.1125
528.2  175.35
528.1  174.35
528  177.0875

# Region:            Si2p
# Acquisition Date:  11/11/21 22:13:05 UTC
# Analysis Method:   XPS
# Analyzer:          Phoibos 100 R6
# Analyzer Lens:     LargeArea:1.5kV
# Analyzer Slit:     1:0.2x20\B:open
# Scan Mode:         FixedAnalyzerTransmission
# Curves/Scan:       1
# Values/Curve:      141
# Dwell Time:        0.8
# Excitation Energy: 1486.61
# Binding Energy:    112
# Pass Energy:       30
# Bias Voltage:      90
# Detector Voltage:  2600
# Eff. Workfunction: 4.309
# Source:            X-Ray Dummy
# Comment:           
#
# Cycle: 0
# Number of Scans: 20
#
# Cycle: 0, Curve: 0
# Acquisition Date: 11/11/21 22:13:05 UTC
#
# ColumnLabels: energy counts/s
#
112  331.625
111.9  336.75
111.8  340.4375
111.7  336.375
111.6  332.875
111.5  336.6875
111.4  338.1875
111.3  332.625
111.2  336.875
111.1  348.8125
111  333.5
110.9  342.6875
110.8  345.6875
110.7  338.8125
110.6  340.6875
110.5  334.5625
110.4  336
110.3  342.1875
110.2  335.125
110.1  342.1875
110  340.8125
109.9  348.25
109.8  350.0625
109.7  348.125
109.6  362.375
109.5  348.875
109.4  356.9375
109.3  342.5
109.2  352.125
109.1  352.8125
109  358
108.9  355.5625
108.8  363.9375
108.7  365.3125
108.6  371.9375
108.5  376.8125
108.4  385.8125
108.3  394.625
108.2  395.4375
108.1  402.625
108  405.8125
107.9  437.0625
107.8  456.25
107.7  486.625
107.6  514.3125
107.5  529.8125
107.4  566
107.3  613.625
107.2  655.25
107.1  698.6875
107  745.75
106.9  812.125
106.8  860.9375
106.7  907.25
106.6  967.375
106.5  1025.75
106.4  1081.8125
106.3  1113.3125
106.2  1130.625
106.1  1182.5625
106  1210.1875
105.9  1222.125
105.8  1207.375
105.7  1181.8125
105.6  1167.6875
105.5  1144.9375
105.4  1098.875
105.3  1042.5625
105.2  995.1875
105.1  942
105  873.5
104.9  815.5625
104.8  756.9375
104.7  706.875
104.6  654.25
104.5  619.5625
104.4  570.1875
104.3  534.5625
104.2  498
104.1  475.25
104  450.875
103.9  435.375
103.8  427.3125
103.7  406.3125
103.6  387.625
103.5  387.3125
103.4  379.5
103.3  370.75
103.2  355.0625
103.1  352.1875
103  354
102.9  344.625
102.8  346.0625
102.7  339.875
102.6  329.4375
102.5  333.25
102.4  326.0625
102.3  333.0625
102.2  325.8125
102.1  325.8125
102  333.875
101.9  329.75
101.8  320.5625
101.7  329.9375
101.6  317.5
101.5  319.5625
101.4  315.0625
101.3  315.75
101.2  317.5625
101.1  318.1875
101  320.9375
100.9  324
100.8  324.125
100.7  317.9375
100.6  320.9375
100.5  316.5625
100.4  313.25
100.3  319.5
100.2  320.5
100.1  313.6875
100  315.8125
99.9  314.125
99.8  309.6875
99.7  319.1875
99.6  320.3125
99.5  315.3125
99.4  316.625
99.3  311.75
99.2  316.25
99.1  316.6875
99  323.9375
98.9  312
98.8  314.5
98.7  310.25
98.6  316.3125
98.5  319.25
98.4  310.25
98.3  317
98.2  319.375
98.1  318.8125
98  320.625

# Region:            Cl2p
# Acquisition Date:  11/11/21 22:14:43 UTC
# Analysis Method:   XPS
# Analyzer:          Phoibos 100 R6
# Analyzer Lens:     LargeArea:1.5kV
# Analyzer Slit:     1:0.2x20\B:open
# Scan Mode:         FixedAnalyzerTransmission
# Curves/Scan:       1
# Values/Curve:      121
# Dwell Time:        0.8
# Excitation Energy: 1486.61
# Binding Energy:    206
# Pass Energy:       30
# Bias Voltage:      90
# Detector Voltage:  2600
# Eff. Workfunction: 4.309
# Source:            X-Ray Dummy
# Comment:           
#
# Cycle: 0
# Number of Scans: 20
#
# Cycle: 0, Curve: 0
# Acquisition Date: 11/11/21 22:14:43 UTC
#
# ColumnLabels: energy counts/s
#
206  590.8125
205.9  579
205.8  594.5625
205.7  596.1875
205.6  595.875
205.5  584.875
205.4  587.3125
205.3  605.8125
205.2  602.125
205.1  585.25
205  600.0625
204.9  596.5
204.8  586.125
204.7  599.875
204.6  599
204.5  598.1875
204.4  591.4375
204.3  591.8125
204.2  599.0625
204.1  595.375
204  619.9375
203.9  597.875
203.8  596.9375
203.7  594.3125
203.6  601.6875
203.5  599.75
203.4  599
203.3  602.625
203.2  610.625
203.1  603.4375
203  601.5
202.9  592.3125
202.8  604.5
202.7  598.75
202.6  608.375
202.5  601.375
202.4  597.1875
202.3  600.75
202.2  588.5625
202.1  596.6875
202  600.625
201.9  589.875
201.8  597.3125
201.7  597.4375
201.6  605.5625
201.5  596.5625
201.4  594.4375
201.3  591.3125
201.2  598.5625
201.1  598.25
201  596.25
200.9  588.4375
200.8  595.3125
200.7  588.875
200.6  597.625
200.5  587.25
200.4  597.9375
200.3  594.75
200.2  599.4375
200.1  594.625
200  586.8125
199.9  598.8125
199.8  594.9375
199.7  590.6875
199.6  589.375
199.5  591.375
199.4  581.5
199.3  595.3125
199.2  595.9375
199.1  588.4375
199  597.5625
198.9  592.125
198.8  586.3125
198.7  578.8125
198.6  585.375
198.5  591.125
198.4  598.5
198.3  594.5
198.2  576
198.1  588.25
198  589.5
197.9  590.5
197.8  598.6875
197.7  584.9375
197.6  589.875
197.5  591.0625
197.4  581.125
197.3  582.8125
197.2  580.9375
197.1  579.75
197  592.625
196.9  597.5625
196.8  601.25
196.7  585.0625
196.6  589.3125
196.5  590.75
196.4  587.5
196.3  586.0625
196.2  587
196.1  575.5625
196  579.5625
195.9  587.375
195.8  589.4375
195.7  584.0625
195.6  587.4375
195.5  592.9375
195.4  580.875
195.3  588.6875
195.2  587.3125
195.1  599.625
195  588.125
194.9  585.0625
194.8  591.8125
194.7  587.9375
194.6  581.8125
194.5  594.1875
194.4  580.9375
194.3  593
194.2  598.3125
194.1  596.125
194  591.1875

# Region:            Ba3d
# Acquisition Date:  11/11/21 22:15:50 UTC
# Analysis Method:   XPS
# Analyzer:          Phoibos 100 R6
# Analyzer Lens:     LargeArea:1.5kV
# Analyzer Slit:     1:0.2x20\B:open
# Scan Mode:         FixedAnalyzerTransmission
# Curves/Scan:       1
# Values/Curve:      81
# Dwell Time:        0.8
# Excitation Energy: 1486.61
# Binding Energy:    784
# Pass Energy:       30
# Bias Voltage:      90
# Detector Voltage:  2600
# Eff. Workfunction: 4.309
# Source:            X-Ray Dummy
# Comment:           
#
# Cycle: 0
# Number of Scans: 20
#
# Cycle: 0, Curve: 0
# Acquisition Date: 11/11/21 22:15:50 UTC
#
# ColumnLabels: energy counts/s
#
784  1834.125
783.9  1845.1875
783.8  1855.4375
783.7  1823.5
783.6  1818.9375
783.5  1831.8125
783.4  1838.1875
783.3  1834.875
783.2  1842
783.1  1815.8125
783  1851.25
782.9  1826.125
782.8  1844.625
782.7  1842.625
782.6  1841.75
782.5  1818.3125
782.4  1836.1875
782.3  1831
782.2  1833.1875
782.1  1824.5
782  1824.375
781.9  1850.9375
781.8  1829.5
781.7  1827.125
781.6  1825.4375
781.5  1808.125
781.4  1835.6875
781.3  1828.5625
781.2  1837.125
781.1  1837
781  1837.3125
780.9  1829.625
780.8  1832
780.7  1823.75
780.6  1834.4375
780.5  1833
780.4  1834.875
780.3  1827.8125
780.2  1818.6875
780.1  1840.4375
780  1820.9375
779.9  1822.5625
779.8  1815.0625
779.7  1830.6875
779.6  1806
779.5  1834.125
779.4  1820.9375
779.3  1813.75
779.2  1810.5625
779.1  1843.625
779  1818.5625
778.9  1834.5625
778.8  1825.8125
778.7  1825.75
778.6  1838.9375
778.5  1832.6875
778.4  1831.1875
778.3  1839.25
778.2  1835.8125
778.1  1841.4375
778  1832
777.9  1828.875
777.8  1815.0625
777.7  1801.25
777.6  1810.3125
777.5  1821.3125
777.4  1814.6875
777.3  1843.5
777.2  1832
777.1  1807.25
777  1827.75
776.9  1818.125
776.8  1826.125
776.7  1812.5
776.6  1829.1875
776.5  1805.5
776.4  1823.25
776.3  1834.6875
776.2  1814.5625
776.1  1822
776  1828.25

