# Created by:        SpecsLab Prodigy, Version 4.60.2-r85849 
#
# XY-Serializer Export Settings:
#   Comment Prefix:           #
#   Output meta data:         yes
#   Energy Axis:              Binding Energy
#   Count Rate:               Counts per Second
#   Separate Scan Data:       no
#   Separate Channel Data:    no
#   External Channel Data:    yes
#   Transmission Function:    no
#   ErrorBar:                 no
#   Operation Results:        yes
#   Time Zone Format:         UTC
#
# Group:             Spectrum Group
#
# Region:            Ba3d (2)
# Acquisition Date:  01/11/22 17:22:25 UTC
# Analysis Method:   XPS
# Analyzer:          Phoibos 100 R6
# Analyzer Lens:     LargeArea:1.5kV
# Analyzer Slit:     1:0.2x20\B:open
# Scan Mode:         FixedAnalyzerTransmission
# Curves/Scan:       1
# Values/Curve:      111
# Dwell Time:        0.8
# Excitation Energy: 1486.61
# Binding Energy:    786
# Pass Energy:       30
# Bias Voltage:      90
# Detector Voltage:  2600
# Eff. Workfunction: 4.309
# Source:            X-Ray Dummy
# Comment:           
#
# Cycle: 0
# Number of Scans: 1
#
# Cycle: 0, Curve: 0
# Acquisition Date: 01/11/22 17:22:25 UTC
#
# ColumnLabels: energy counts/s
#
786  5932.5
785.9  6310
785.8  6900
785.7  7210
785.6  7888.75
785.5  8281.25
785.4  8798.75
785.3  9303.75
785.2  9955
785.1  10450
785  10633.75
784.9  10892.5
784.8  11333.75
784.7  11105
784.6  11552.5
784.5  11302.5
784.4  10845
784.3  10636.25
784.2  10205
784.1  9700
784  9181.25
783.9  8775
783.8  8091.25
783.7  7396.25
783.6  6725
783.5  6361.25
783.4  5665
783.3  5375
783.2  5062.5
783.1  4622.5
783  4488.75
782.9  4025
782.8  3931.25
782.7  3806.25
782.6  3830
782.5  3483.75
782.4  3462.5
782.3  3403.75
782.2  3173.75
782.1  3212.5
782  3083.75
781.9  2930
781.8  3033.75
781.7  2923.75
781.6  2977.5
781.5  2963.75
781.4  2887.5
781.3  2901.25
781.2  2898.75
781.1  2893.75
781  2845
780.9  2768.75
780.8  2703.75
780.7  2772.5
780.6  2716.25
780.5  2732.5
780.4  2648.75
780.3  2657.5
780.2  2621.25
780.1  2552.5
780  2722.5
779.9  2570
779.8  2678.75
779.7  2532.5
779.6  2520
779.5  2482.5
779.4  2565
779.3  2563.75
779.2  2537.5
779.1  2487.5
779  2457.5
778.9  2441.25
778.8  2520
778.7  2401.25
778.6  2400
778.5  2388.75
778.4  2438.75
778.3  2377.5
778.2  2460
778.1  2393.75
778  2423.75
777.9  2412.5
777.8  2448.75
777.7  2328.75
777.6  2500
777.5  2375
777.4  2378.75
777.3  2431.25
777.2  2430
777.1  2440
777  2410
776.9  2391.25
776.8  2503.75
776.7  2452.5
776.6  2343.75
776.5  2605
776.4  2556.25
776.3  2516.25
776.2  2532.5
776.1  2613.75
776  2647.5
775.9  2678.75
775.8  2706.25
775.7  2708.75
775.6  2708.75
775.5  2877.5
775.4  2871.25
775.3  2897.5
775.2  2917.5
775.1  2862.5
775  2846.25

# Region:            Ba3d
# Acquisition Date:  01/11/22 17:48:52 UTC
# Analysis Method:   XPS
# Analyzer:          Phoibos 100 R6
# Analyzer Lens:     LargeArea:1.5kV
# Analyzer Slit:     1:0.2x20\B:open
# Scan Mode:         FixedAnalyzerTransmission
# Curves/Scan:       1
# Values/Curve:      101
# Dwell Time:        0.8
# Excitation Energy: 1486.61
# Binding Energy:    790
# Pass Energy:       30
# Bias Voltage:      90
# Detector Voltage:  2600
# Eff. Workfunction: 4.309
# Source:            X-Ray Dummy
# Comment:           
#
# Cycle: 0
# Number of Scans: 3
#
# Cycle: 0, Curve: 0
# Acquisition Date: 01/11/22 17:48:52 UTC
#
# ColumnLabels: energy counts/s
#
790  3208.3333
789.9  3163.3333
789.8  3146.6667
789.7  3147.9167
789.6  3112.9167
789.5  3133.75
789.4  3152.9167
789.3  3047.9167
789.2  3064.5833
789.1  3046.25
789  3087.0833
788.9  3045
788.8  3061.25
788.7  3092.0833
788.6  3100
788.5  3085
788.4  3132.0833
788.3  3141.25
788.2  3175
788.1  3153.75
788  3152.5
787.9  3199.5833
787.8  3202.9167
787.7  3273.75
787.6  3219.5833
787.5  3258.75
787.4  3367.0833
787.3  3375.8333
787.2  3544.1667
787.1  3522.0833
787  3600
786.9  3808.75
786.8  3812.0833
786.7  3982.0833
786.6  4230.8333
786.5  4400.8333
786.4  4587.0833
786.3  4900
786.2  5234.5833
786.1  5643.75
786  5921.6667
785.9  6374.1667
785.8  6759.1667
785.7  7269.1667
785.6  7822.5
785.5  8457.9167
785.4  8793.75
785.3  9359.5833
785.2  9707.9167
785.1  10144.583
785  10738.333
784.9  10750
784.8  10948.75
784.7  11148.333
784.6  11043.75
784.5  11111.25
784.4  10825
784.3  10543.333
784.2  10081.25
784.1  9577.0833
784  8949.5833
783.9  8592.0833
783.8  7870
783.7  7326.6667
783.6  6868.75
783.5  6319.5833
783.4  5863.3333
783.3  5439.1667
783.2  5070.8333
783.1  4715
783  4371.25
782.9  4152.0833
782.8  3874.5833
782.7  3820.8333
782.6  3635.4167
782.5  3429.5833
782.4  3318.3333
782.3  3243.75
782.2  3170.4167
782.1  3246.25
782  3119.1667
781.9  3080.4167
781.8  3033.3333
781.7  2953.75
781.6  2957.0833
781.5  2928.3333
781.4  2916.25
781.3  2850.4167
781.2  2848.3333
781.1  2789.1667
781  2730.8333
780.9  2730.4167
780.8  2700
780.7  2732.0833
780.6  2751.6667
780.5  2648.3333
780.4  2679.1667
780.3  2694.1667
780.2  2596.6667
780.1  2665.8333
780  2569.1667

# Region:            Cl2p
# Acquisition Date:  01/11/22 17:25:02 UTC
# Analysis Method:   XPS
# Analyzer:          Phoibos 100 R6
# Analyzer Lens:     LargeArea:1.5kV
# Analyzer Slit:     1:0.2x20\B:open
# Scan Mode:         FixedAnalyzerTransmission
# Curves/Scan:       1
# Values/Curve:      91
# Dwell Time:        0.8
# Excitation Energy: 1486.61
# Binding Energy:    204
# Pass Energy:       30
# Bias Voltage:      90
# Detector Voltage:  2600
# Eff. Workfunction: 4.309
# Source:            X-Ray Dummy
# Comment:           
#
# Cycle: 0
# Number of Scans: 1
#
# Cycle: 0, Curve: 0
# Acquisition Date: 01/11/22 17:25:02 UTC
#
# ColumnLabels: energy counts/s
#
204  1253.75
203.9  1222.5
203.8  1296.25
203.7  1277.5
203.6  1285
203.5  1268.75
203.4  1351.25
203.3  1327.5
203.2  1352.5
203.1  1402.5
203  1365
202.9  1403.75
202.8  1453.75
202.7  1505
202.6  1518.75
202.5  1565
202.4  1521.25
202.3  1560
202.2  1446.25
202.1  1413.75
202  1495
201.9  1418.75
201.8  1328.75
201.7  1292.5
201.6  1243.75
201.5  1132.5
201.4  1107.5
201.3  975
201.2  1068.75
201.1  986.25
201  968.75
200.9  902.5
200.8  905
200.7  885
200.6  843.75
200.5  812.5
200.4  783.75
200.3  790
200.2  805
200.1  755
200  786.25
199.9  795
199.8  741.25
199.7  745
199.6  791.25
199.5  762.5
199.4  795
199.3  765
199.2  772.5
199.1  807.5
199  767.5
198.9  758.75
198.8  777.5
198.7  771.25
198.6  706.25
198.5  782.5
198.4  701.25
198.3  712.5
198.2  800
198.1  812.5
198  786.25
197.9  768.75
197.8  732.5
197.7  753.75
197.6  837.5
197.5  735
197.4  836.25
197.3  852.5
197.2  763.75
197.1  791.25
197  827.5
196.9  795
196.8  817.5
196.7  818.75
196.6  793.75
196.5  770
196.4  818.75
196.3  795
196.2  808.75
196.1  721.25
196  822.5
195.9  808.75
195.8  750
195.7  752.5
195.6  791.25
195.5  767.5
195.4  757.5
195.3  710
195.2  815
195.1  795
195  768.75

# Region:            Cl2p (2)
# Acquisition Date:  01/11/22 18:30:22 UTC
# Analysis Method:   XPS
# Analyzer:          Phoibos 100 R6
# Analyzer Lens:     LargeArea:1.5kV
# Analyzer Slit:     1:0.2x20\B:open
# Scan Mode:         FixedAnalyzerTransmission
# Curves/Scan:       1
# Values/Curve:      91
# Dwell Time:        0.8
# Excitation Energy: 1486.61
# Binding Energy:    207
# Pass Energy:       30
# Bias Voltage:      90
# Detector Voltage:  2600
# Eff. Workfunction: 4.309
# Source:            X-Ray Dummy
# Comment:           
#
# Cycle: 0
# Number of Scans: 9
#
# Cycle: 0, Curve: 0
# Acquisition Date: 01/11/22 18:30:22 UTC
#
# ColumnLabels: energy counts/s
#
207  791.38889
206.9  779.16667
206.8  786.52778
206.7  775.55556
206.6  771.52778
206.5  778.05556
206.4  776.11111
206.3  783.88889
206.2  801.11111
206.1  807.22222
206  815
205.9  799.44444
205.8  814.30556
205.7  797.91667
205.6  829.02778
205.5  821.25
205.4  855.97222
205.3  875.97222
205.2  895.83333
205.1  919.44444
205  946.25
204.9  948.47222
204.8  973.47222
204.7  1013.3333
204.6  1070.8333
204.5  1070.5556
204.4  1106.8056
204.3  1144.0278
204.2  1184.4444
204.1  1184.8611
204  1205.5556
203.9  1225.1389
203.8  1255
203.7  1281.1111
203.6  1317.3611
203.5  1306.8056
203.4  1350.9722
203.3  1344.0278
203.2  1350.9722
203.1  1352.0833
203  1423.1944
202.9  1454.4444
202.8  1456.25
202.7  1505.9722
202.6  1477.6389
202.5  1504.4444
202.4  1494.1667
202.3  1511.1111
202.2  1511.25
202.1  1484.7222
202  1432.0833
201.9  1412.0833
201.8  1361.9444
201.7  1317.9167
201.6  1268.1944
201.5  1197.9167
201.4  1134.7222
201.3  1072.0833
201.2  1037.0833
201.1  986.25
201  923.61111
200.9  905.13889
200.8  879.16667
200.7  851.52778
200.6  842.5
200.5  823.19444
200.4  795.41667
200.3  800.97222
200.2  780.83333
200.1  780.55556
200  772.36111
199.9  771.80556
199.8  770.41667
199.7  771.11111
199.6  754.72222
199.5  781.52778
199.4  750
199.3  757.08333
199.2  725.69444
199.1  762.77778
199  720.41667
198.9  757.22222
198.8  758.75
198.7  760.97222
198.6  756.66667
198.5  765.55556
198.4  749.86111
198.3  744.30556
198.2  760
198.1  768.33333
198  782.5

# Region:            C1s
# Acquisition Date:  01/11/22 18:24:20 UTC
# Analysis Method:   XPS
# Analyzer:          Phoibos 100 R6
# Analyzer Lens:     LargeArea:1.5kV
# Analyzer Slit:     1:0.2x20\B:open
# Scan Mode:         FixedAnalyzerTransmission
# Curves/Scan:       1
# Values/Curve:      131
# Dwell Time:        0.8
# Excitation Energy: 1486.61
# Binding Energy:    295
# Pass Energy:       30
# Bias Voltage:      90
# Detector Voltage:  2600
# Eff. Workfunction: 4.309
# Source:            X-Ray Dummy
# Comment:           
#
# Cycle: 0
# Number of Scans: 8
#
# Cycle: 0, Curve: 0
# Acquisition Date: 01/11/22 18:24:20 UTC
#
# ColumnLabels: energy counts/s
#
295  811.5625
294.9  824.21875
294.8  822.65625
294.7  812.96875
294.6  847.96875
294.5  818.4375
294.4  823.75
294.3  837.34375
294.2  830.46875
294.1  829.0625
294  821.40625
293.9  822.5
293.8  825.78125
293.7  824.6875
293.6  838.125
293.5  822.96875
293.4  830
293.3  832.96875
293.2  877.03125
293.1  869.53125
293  858.28125
292.9  846.25
292.8  875.78125
292.7  894.84375
292.6  865.3125
292.5  874.84375
292.4  895.3125
292.3  912.03125
292.2  918.75
292.1  942.5
292  956.5625
291.9  939.84375
291.8  985
291.7  1006.875
291.6  1040
291.5  1037.6563
291.4  1042.1875
291.3  1080.1563
291.2  1122.3438
291.1  1128.9063
291  1146.0938
290.9  1189.375
290.8  1163.2813
290.7  1213.9063
290.6  1232.8125
290.5  1233.75
290.4  1247.5
290.3  1228.9063
290.2  1259.2188
290.1  1262.5
290  1275.1563
289.9  1257.6563
289.8  1288.75
289.7  1307.3438
289.6  1283.2813
289.5  1302.3438
289.4  1314.2188
289.3  1295.1563
289.2  1291.4063
289.1  1302.1875
289  1299.8438
288.9  1273.5938
288.8  1254.8438
288.7  1279.0625
288.6  1238.75
288.5  1203.2813
288.4  1186.7188
288.3  1166.875
288.2  1118.5938
288.1  1093.2813
288  1043.75
287.9  1039.5313
287.8  990.15625
287.7  973.28125
287.6  965.625
287.5  940.78125
287.4  914.0625
287.3  890.625
287.2  890.15625
287.1  862.96875
287  829.375
286.9  828.90625
286.8  820.78125
286.7  808.59375
286.6  801.5625
286.5  787.5
286.4  783.59375
286.3  770
286.2  780.46875
286.1  795.15625
286  784.6875
285.9  797.96875
285.8  782.5
285.7  775.78125
285.6  787.34375
285.5  786.09375
285.4  785.9375
285.3  780
285.2  789.375
285.1  781.40625
285  779.6875
284.9  768.4375
284.8  800.3125
284.7  787.96875
284.6  790
284.5  786.5625
284.4  769.84375
284.3  780.625
284.2  781.71875
284.1  782.65625
284  790.46875
283.9  785.46875
283.8  772.1875
283.7  769.0625
283.6  784.53125
283.5  779.53125
283.4  789.375
283.3  780.46875
283.2  775.3125
283.1  778.125
283  776.71875
282.9  792.65625
282.8  768.90625
282.7  772.96875
282.6  800.46875
282.5  794.0625
282.4  785.3125
282.3  764.84375
282.2  776.71875
282.1  770.78125
282  828.125

# Region:            N1s
# Acquisition Date:  01/11/22 18:41:01 UTC
# Analysis Method:   XPS
# Analyzer:          Phoibos 100 R6
# Analyzer Lens:     LargeArea:1.5kV
# Analyzer Slit:     1:0.2x20\B:open
# Scan Mode:         FixedAnalyzerTransmission
# Curves/Scan:       1
# Values/Curve:      131
# Dwell Time:        0.8
# Excitation Energy: 1486.61
# Binding Energy:    408
# Pass Energy:       30
# Bias Voltage:      90
# Detector Voltage:  2600
# Eff. Workfunction: 4.309
# Source:            X-Ray Dummy
# Comment:           
#
# Cycle: 0
# Number of Scans: 15
#
# Cycle: 0, Curve: 0
# Acquisition Date: 01/11/22 18:41:01 UTC
#
# ColumnLabels: energy counts/s
#
408  771.83333
407.9  764.25
407.8  785.08333
407.7  781.66667
407.6  757.58333
407.5  772.5
407.4  780.33333
407.3  766.33333
407.2  783.16667
407.1  789.58333
407  774.33333
406.9  773.58333
406.8  775.5
406.7  783.25
406.6  776.91667
406.5  787.91667
406.4  781.08333
406.3  788.58333
406.2  774.58333
406.1  797.41667
406  786.66667
405.9  790.16667
405.8  803.16667
405.7  796.5
405.6  798.33333
405.5  804.5
405.4  796.75
405.3  816.75
405.2  816.66667
405.1  827.58333
405  838.5
404.9  834.66667
404.8  847.58333
404.7  845.58333
404.6  849.5
404.5  838.5
404.4  847.41667
404.3  853.91667
404.2  851.91667
404.1  858.16667
404  861.41667
403.9  864.08333
403.8  862.33333
403.7  861.58333
403.6  853.75
403.5  864.58333
403.4  858.91667
403.3  856.83333
403.2  858.25
403.1  868.33333
403  850.5
402.9  841.08333
402.8  847.83333
402.7  843.41667
402.6  838.41667
402.5  833.58333
402.4  813.33333
402.3  814.5
402.2  821.58333
402.1  826.75
402  800.75
401.9  801.41667
401.8  785.5
401.7  790.66667
401.6  785.5
401.5  797.25
401.4  782.41667
401.3  780.5
401.2  780.5
401.1  781.08333
401  760.41667
400.9  765.58333
400.8  784.16667
400.7  774.08333
400.6  767.91667
400.5  774.66667
400.4  759
400.3  767.08333
400.2  767.41667
400.1  780.75
400  770.41667
399.9  771.75
399.8  777.16667
399.7  770.5
399.6  751.91667
399.5  772.66667
399.4  769
399.3  776.83333
399.2  766.5
399.1  753.33333
399  769.08333
398.9  757
398.8  761.41667
398.7  766.83333
398.6  759.75
398.5  768.5
398.4  757.08333
398.3  754.41667
398.2  755.33333
398.1  763.66667
398  756.66667
397.9  763.83333
397.8  767
397.7  767.25
397.6  769.41667
397.5  759.91667
397.4  750.16667
397.3  777.41667
397.2  767.66667
397.1  753.08333
397  760.58333
396.9  756.5
396.8  752
396.7  761.66667
396.6  750.33333
396.5  756.33333
396.4  774.16667
396.3  765.33333
396.2  763
396.1  777.58333
396  757.25
395.9  772.66667
395.8  758.75
395.7  759.75
395.6  763.41667
395.5  759.83333
395.4  765.25
395.3  759.41667
395.2  759.08333
395.1  778.16667
395  768.58333

# Region:            Si2p
# Acquisition Date:  01/11/22 18:04:37 UTC
# Analysis Method:   XPS
# Analyzer:          Phoibos 100 R6
# Analyzer Lens:     LargeArea:1.5kV
# Analyzer Slit:     1:0.2x20\B:open
# Scan Mode:         FixedAnalyzerTransmission
# Curves/Scan:       1
# Values/Curve:      141
# Dwell Time:        0.8
# Excitation Energy: 1486.61
# Binding Energy:    112
# Pass Energy:       30
# Bias Voltage:      90
# Detector Voltage:  2600
# Eff. Workfunction: 4.309
# Source:            X-Ray Dummy
# Comment:           
#
# Cycle: 0
# Number of Scans: 4
#
# Cycle: 0, Curve: 0
# Acquisition Date: 01/11/22 18:04:37 UTC
#
# ColumnLabels: energy counts/s
#
112  457.5
111.9  450
111.8  472.8125
111.7  444.375
111.6  479.6875
111.5  476.5625
111.4  480
111.3  459.6875
111.2  493.4375
111.1  469.375
111  457.8125
110.9  480
110.8  519.0625
110.7  457.5
110.6  469.0625
110.5  496.5625
110.4  460
110.3  497.1875
110.2  498.4375
110.1  505.9375
110  510.625
109.9  517.1875
109.8  532.5
109.7  543.125
109.6  584.0625
109.5  539.375
109.4  618.125
109.3  586.25
109.2  650
109.1  674.375
109  713.4375
108.9  706.5625
108.8  765.9375
108.7  837.1875
108.6  862.5
108.5  910.9375
108.4  976.5625
108.3  1019.0625
108.2  1078.75
108.1  1141.25
108  1196.25
107.9  1235.3125
107.8  1281.875
107.7  1280.625
107.6  1362.1875
107.5  1348.125
107.4  1351.875
107.3  1365
107.2  1342.1875
107.1  1352.8125
107  1260.625
106.9  1288.4375
106.8  1235.9375
106.7  1172.1875
106.6  1161.5625
106.5  1112.5
106.4  1032.8125
106.3  981.25
106.2  920.9375
106.1  875
106  818.4375
105.9  754.6875
105.8  727.1875
105.7  701.875
105.6  693.75
105.5  662.5
105.4  620.9375
105.3  583.125
105.2  581.5625
105.1  535.625
105  526.5625
104.9  513.75
104.8  520.9375
104.7  507.1875
104.6  492.1875
104.5  517.1875
104.4  511.875
104.3  478.75
104.2  467.8125
104.1  494.6875
104  460
103.9  484.0625
103.8  479.375
103.7  473.125
103.6  472.8125
103.5  462.8125
103.4  458.75
103.3  440.625
103.2  460.625
103.1  471.875
103  446.5625
102.9  450.3125
102.8  451.25
102.7  452.8125
102.6  433.4375
102.5  431.5625
102.4  440
102.3  417.5
102.2  447.8125
102.1  414.0625
102  437.5
101.9  412.5
101.8  439.6875
101.7  439.6875
101.6  436.25
101.5  408.75
101.4  436.25
101.3  430.3125
101.2  420.9375
101.1  415
101  420.3125
100.9  420.3125
100.8  399.375
100.7  418.4375
100.6  411.5625
100.5  418.75
100.4  424.375
100.3  424.375
100.2  414.0625
100.1  427.1875
100  406.5625
99.9  412.1875
99.8  444.6875
99.7  430.3125
99.6  431.25
99.5  446.25
99.4  442.5
99.3  435
99.2  441.25
99.1  447.5
99  444.0625
98.9  449.0625
98.8  467.8125
98.7  490.625
98.6  506.25
98.5  522.1875
98.4  553.4375
98.3  557.1875
98.2  601.5625
98.1  601.875
98  662.5

# Operation:         Si2p
# Range Start:       111.43
# Range End:         98
# Parameter: "Transition" = Si2p
# Parameter: "Label" = 
# Parameter: "Background Method" = Tougaard
# Parameter: "Peak Shape" = Voigt
# Parameter: "Asymmetric Peak" = false
# Parameter: "FWHM-Annotation" = S-B = <Signal-BG:@>\nFWHM = <FWHM:@>\nArea = <Area:@>
# Parameter: "Peak-Annotation" = <Label>\n<Transition>\nE = <Center:@>
#
# Result:
# Number of Results: 2
# Parameter: "Transition" = Si2p
# Parameter: "Label" = 
# Parameter: "Center" = 107.33833511676153 eV +- 0.0068739941127660131
# Parameter: "Area" = 2522.4190464871099 cps eV +- 42.701844113915513
# Parameter: "FWHM Lorentzian" = 0.48000640531028171 eV +- 0.083724715943631872
# Parameter: "FWHM Gaussian" = 2.1262347581559351 eV +- 0.057698716696305656
# Parameter: "Asymmetry" = 0 +- 0
# Parameter: "Tougaard B" = 4022.0134515997556 eV^2 +- 1290.688332205611
# Parameter: "Tougaard C" = 1643 eV^2 +- 0
# Parameter: "FWHM" = 2.3945495998766977 eV
# Parameter: "Offset (0th order)" = 443.71064372413662 cps +- 2.174915381964837
# Parameter: "Abbe factor" = 0.20564849515568509
# Parameter: "Reduced Chi Square" = 7.7323747677019554
# Parameter: "Q Probability" = 3.9321797869236008e-133
# Parameter: "Number of performed iterations" = 12
# Parameter: "Fit termination reason" = ConvergedInChi
# Parameter: "Signal" = 1358.1174939891919 cps
# Parameter: "Signal-BG" = 912.55025843621991 cps
#
# Result Name:       Background
# Number of Curves:  1
#
# Curve:             0
# Values/Curve:      113
#
111.4  458.4827
111.28036  458.06814
111.16071  457.65277
111.04107  457.23665
110.92143  456.81983
110.80179  456.40239
110.68214  455.9844
110.5625  455.56594
110.44286  455.14713
110.32321  454.72805
110.20357  454.30886
110.08393  453.8897
109.96429  453.47075
109.84464  453.05224
109.725  452.63444
109.60536  452.21766
109.48571  451.80232
109.36607  451.38886
109.24643  450.97786
109.12679  450.56997
109.00714  450.16597
108.8875  449.76673
108.76786  449.37326
108.64821  448.98667
108.52857  448.60819
108.40893  448.23911
108.28929  447.8808
108.16964  447.53465
108.05  447.20205
107.93036  446.88432
107.81071  446.5827
107.69107  446.29826
107.57143  446.03191
107.45179  445.78431
107.33214  445.55589
107.2125  445.34677
107.09286  445.15683
106.97321  444.98566
106.85357  444.8326
106.73393  444.69677
106.61429  444.5771
106.49464  444.4724
106.375  444.38135
106.25536  444.30261
106.13571  444.23482
106.01607  444.17666
105.89643  444.12687
105.77679  444.08427
105.65714  444.0478
105.5375  444.0165
105.41786  443.98953
105.29821  443.96618
105.17857  443.94582
105.05893  443.92795
104.93929  443.91213
104.81964  443.89802
104.7  443.88532
104.58036  443.87382
104.46071  443.86333
104.34107  443.85369
104.22143  443.84479
104.10179  443.83654
103.98214  443.82886
103.8625  443.82168
103.74286  443.81495
103.62321  443.80862
103.50357  443.80268
103.38393  443.79707
103.26429  443.79178
103.14464  443.78677
103.025  443.78204
102.90536  443.77757
102.78571  443.77333
102.66607  443.76931
102.54643  443.7655
102.42679  443.76189
102.30714  443.75846
102.1875  443.75522
102.06786  443.75214
101.94821  443.74922
101.82857  443.74645
101.70893  443.74382
101.58929  443.74134
101.46964  443.73899
101.35  443.73676
101.23036  443.73466
101.11071  443.73267
100.99107  443.73079
100.87143  443.72902
100.75179  443.72735
100.63214  443.72578
100.5125  443.72431
100.39286  443.72293
100.27321  443.72164
100.15357  443.72043
100.03393  443.71931
99.914286  443.71826
99.794643  443.7173
99.675  443.7164
99.555357  443.71559
99.435714  443.71484
99.316071  443.71416
99.196429  443.71354
99.076786  443.71299
98.957143  443.7125
98.8375  443.71208
98.717857  443.71171
98.598214  443.7114
98.478571  443.71114
98.358929  443.71094
98.239286  443.71079
98.119643  443.71069
98  443.71064

# Result Name:       Peak Fit
# Number of Curves:  1
#
# Curve:             0
# Values/Curve:      113
#
111.4  472.56069
111.28036  473.26948
111.16071  474.14515
111.04107  475.22826
110.92143  476.5719
110.80179  478.24548
110.68214  480.33949
110.5625  482.97111
110.44286  486.29062
110.32321  490.48837
110.20357  495.80178
110.08393  502.52163
109.96429  510.99656
109.84464  521.63446
109.725  534.89905
109.60536  551.30003
109.48571  571.37511
109.36607  595.66269
109.24643  624.66465
109.12679  658.79979
109.00714  698.34974
108.8875  743.40082
108.76786  793.78673
108.64821  849.03834
108.52857  908.34753
108.40893  970.55195
108.28929  1034.1466
108.16964  1097.3261
108.05  1158.0585
107.93036  1214.1882
107.81071  1263.5611
107.69107  1304.1626
107.57143  1334.256
107.45179  1352.5081
107.33214  1358.0887
107.2125  1350.7347
107.09286  1330.7696
106.97321  1299.0794
106.85357  1257.0442
106.73393  1206.4357
106.61429  1149.2895
106.49464  1087.7662
106.375  1024.0141
106.25536  960.04598
106.13571  897.63913
106.01607  838.26452
105.89643  783.04792
105.77679  732.76127
105.65714  687.84042
105.5375  648.42303
105.41786  614.3999
105.29821  585.47257
105.17857  561.21126
105.05893  541.10835
104.93929  524.62397
104.81964  511.22225
104.7  500.3976
104.58036  491.69178
104.46071  484.70301
104.34107  479.0888
104.22143  474.56416
104.10179  470.89691
103.98214  467.90121
103.8625  465.43053
103.74286  463.37079
103.62321  461.63395
103.50357  460.15253
103.38393  458.87494
103.26429  457.76175
103.14464  456.78271
103.025  455.91449
102.90536  455.13892
102.78571  454.44172
102.66607  453.8115
102.54643  453.23907
102.42679  452.71694
102.30714  452.2389
102.1875  451.79977
102.06786  451.39518
101.94821  451.02138
101.82857  450.67518
101.70893  450.35379
101.58929  450.05481
101.46964  449.77613
101.35  449.51588
101.23036  449.27242
101.11071  449.0443
100.99107  448.83022
100.87143  448.62903
100.75179  448.43969
100.63214  448.26127
100.5125  448.09292
100.39286  447.9339
100.27321  447.78351
100.15357  447.64114
100.03393  447.50622
99.914286  447.37822
99.794643  447.25669
99.675  447.14119
99.555357  447.03133
99.435714  446.92673
99.316071  446.82708
99.196429  446.73206
99.076786  446.6414
98.957143  446.55482
98.8375  446.4721
98.717857  446.39299
98.598214  446.31731
98.478571  446.24485
98.358929  446.17544
98.239286  446.10891
98.119643  446.0451
98  445.98388

# Region:            O1s
# Acquisition Date:  01/11/22 18:06:56 UTC
# Analysis Method:   XPS
# Analyzer:          Phoibos 100 R6
# Analyzer Lens:     LargeArea:1.5kV
# Analyzer Slit:     1:0.2x20\B:open
# Scan Mode:         FixedAnalyzerTransmission
# Curves/Scan:       1
# Values/Curve:      171
# Dwell Time:        0.8
# Excitation Energy: 1486.61
# Binding Energy:    545
# Pass Energy:       30
# Bias Voltage:      90
# Detector Voltage:  2600
# Eff. Workfunction: 4.309
# Source:            X-Ray Dummy
# Comment:           
#
# Cycle: 0
# Number of Scans: 4
#
# Cycle: 0, Curve: 0
# Acquisition Date: 01/11/22 18:06:56 UTC
#
# ColumnLabels: energy counts/s
#
545  1189.0625
544.9  1178.75
544.8  1167.1875
544.7  1182.1875
544.6  1168.75
544.5  1165.9375
544.4  1168.4375
544.3  1130
544.2  1144.0625
544.1  1144.0625
544  1146.25
543.9  1143.4375
543.8  1172.5
543.7  1152.5
543.6  1150.625
543.5  1126.5625
543.4  1117.8125
543.3  1107.5
543.2  1127.5
543.1  1159.375
543  1120.9375
542.9  1136.875
542.8  1137.8125
542.7  1121.5625
542.6  1114.0625
542.5  1141.875
542.4  1157.1875
542.3  1116.25
542.2  1121.5625
542.1  1162.8125
542  1139.6875
541.9  1138.125
541.8  1112.5
541.7  1125.9375
541.6  1140
541.5  1155.625
541.4  1153.75
541.3  1163.4375
541.2  1176.5625
541.1  1168.125
541  1157.5
540.9  1163.4375
540.8  1182.5
540.7  1147.5
540.6  1213.75
540.5  1202.8125
540.4  1210.9375
540.3  1202.1875
540.2  1220.9375
540.1  1234.6875
540  1240
539.9  1265.625
539.8  1284.0625
539.7  1316.25
539.6  1375
539.5  1384.0625
539.4  1400.3125
539.3  1466.875
539.2  1509.6875
539.1  1546.25
539  1609.0625
538.9  1744.375
538.8  1808.75
538.7  1963.75
538.6  2076.875
538.5  2251.25
538.4  2416.5625
538.3  2577.5
538.2  2896.5625
538.1  3099.0625
538  3408.4375
537.9  3720.3125
537.8  3975
537.7  4330.3125
537.6  4763.75
537.5  4961.875
537.4  5350.9375
537.3  5622.1875
537.2  5888.4375
537.1  6197.8125
537  6346.5625
536.9  6555.3125
536.8  6517.5
536.7  6862.5
536.6  6519.6875
536.5  6475.9375
536.4  6191.5625
536.3  5939.6875
536.2  5789.375
536.1  5397.1875
536  5036.25
535.9  4687.8125
535.8  4339.6875
535.7  3947.8125
535.6  3628.4375
535.5  3272.8125
535.4  2996.5625
535.3  2732.8125
535.2  2477.5
535.1  2318.75
535  2059.375
534.9  1931.25
534.8  1776.875
534.7  1673.125
534.6  1577.5
534.5  1480.9375
534.4  1435.9375
534.3  1375.9375
534.2  1335.625
534.1  1266.5625
534  1247.1875
533.9  1236.5625
533.8  1176.875
533.7  1175.9375
533.6  1162.5
533.5  1130.3125
533.4  1112.5
533.3  1114.0625
533.2  1071.875
533.1  1076.5625
533  1048.4375
532.9  1078.75
532.8  1015.3125
532.7  1055.3125
532.6  1043.75
532.5  1074.6875
532.4  1004.6875
532.3  1047.5
532.2  1014.0625
532.1  999.0625
532  987.1875
531.9  1023.4375
531.8  1012.8125
531.7  997.1875
531.6  1010.625
531.5  1007.5
531.4  1049.6875
531.3  1033.125
531.2  1025.3125
531.1  979.6875
531  972.5
530.9  1010
530.8  1005.9375
530.7  1002.8125
530.6  972.1875
530.5  1031.25
530.4  1009.375
530.3  972.5
530.2  978.75
530.1  956.5625
530  965.3125
529.9  993.75
529.8  954.375
529.7  986.875
529.6  977.1875
529.5  960.3125
529.4  979.6875
529.3  985.3125
529.2  995
529.1  1006.5625
529  1025.625
528.9  993.125
528.8  1012.1875
528.7  1007.8125
528.6  1039.375
528.5  1053.125
528.4  1034.6875
528.3  1074.375
528.2  1093.125
528.1  1135
528  1119.0625

# Region:            overview
# Acquisition Date:  01/11/22 17:37:04 UTC
# Analysis Method:   XPS
# Analyzer:          Phoibos 100 R6
# Analyzer Lens:     LargeArea:1.5kV
# Analyzer Slit:     1:0.2x20\B:open
# Scan Mode:         FixedAnalyzerTransmission
# Curves/Scan:       1
# Values/Curve:      1205
# Dwell Time:        0.2
# Excitation Energy: 1486.61
# Binding Energy:    1200
# Pass Energy:       50
# Bias Voltage:      90
# Detector Voltage:  2600
# Eff. Workfunction: 4.309
# Source:            X-Ray Dummy
# Comment:           
#
# Cycle: 0
# Number of Scans: 1
#
# Cycle: 0, Curve: 0
# Acquisition Date: 01/11/22 17:37:04 UTC
#
# ColumnLabels: energy counts/s
#
1200  10290
1199  10320
1198  10195
1197  10505
1196  9780
1195  10490
1194  10170
1193  9995
1192  10085
1191  9800
1190  9820
1189  10590
1188  9765
1187  9940
1186  10010
1185  10320
1184  10170
1183  10085
1182  10380
1181  10465
1180  10240
1179  10490
1178  10065
1177  10255
1176  10005
1175  10135
1174  10230
1173  10275
1172  10185
1171  10480
1170  10120
1169  10385
1168  10800
1167  10145
1166  10200
1165  10050
1164  10440
1163  10320
1162  10065
1161  10340
1160  10365
1159  10430
1158  10555
1157  10485
1156  10310
1155  10365
1154  10240
1153  10400
1152  10530
1151  10400
1150  10205
1149  10760
1148  10265
1147  10390
1146  10505
1145  10925
1144  10390
1143  10420
1142  10990
1141  11540
1140  11325
1139  10955
1138  10860
1137  10905
1136  10705
1135  10835
1134  10560
1133  10430
1132  10575
1131  10425
1130  10590
1129  10085
1128  10455
1127  10365
1126  10015
1125  10735
1124  10825
1123  10315
1122  10240
1121  10455
1120  10345
1119  10510
1118  10580
1117  10610
1116  10540
1115  10665
1114  10125
1113  10310
1112  10415
1111  10445
1110  10490
1109  10630
1108  10750
1107  10255
1106  10505
1105  10340
1104  10555
1103  10650
1102  10150
1101  10830
1100  10555
1099  10495
1098  10360
1097  10805
1096  10675
1095  10790
1094  10600
1093  10620
1092  11125
1091  10730
1090  10850
1089  10960
1088  10845
1087  10510
1086  10650
1085  10325
1084  10595
1083  10585
1082  10750
1081  10865
1080  10635
1079  11180
1078  11120
1077  11625
1076  11075
1075  10650
1074  11105
1073  11550
1072  11315
1071  11495
1070  11990
1069  12595
1068  13155
1067  13000
1066  12935
1065  12470
1064  12265
1063  11595
1062  11310
1061  11090
1060  10820
1059  10770
1058  11060
1057  10315
1056  10965
1055  10505
1054  10500
1053  10580
1052  10250
1051  10060
1050  10285
1049  10470
1048  10250
1047  10925
1046  9820
1045  10185
1044  10060
1043  10345
1042  10290
1041  10360
1040  9645
1039  9980
1038  10135
1037  10435
1036  10025
1035  10495
1034  10350
1033  10295
1032  10470
1031  10295
1030  10265
1029  10570
1028  10290
1027  10195
1026  10325
1025  10470
1024  10400
1023  10745
1022  10240
1021  10565
1020  10595
1019  10395
1018  10025
1017  10425
1016  10105
1015  10355
1014  10390
1013  9925
1012  10475
1011  10410
1010  10530
1009  10500
1008  10540
1007  10845
1006  10520
1005  10900
1004  10465
1003  10415
1002  10665
1001  10450
1000  10270
999  10505
998  9990
997  10160
996  10320
995  9965
994  10290
993  9420
992  9560
991  9505
990  9860
989  9450
988  9550
987  10105
986  10525
985  10615
984  10615
983  10430
982  10305
981  9775
980  9675
979  9110
978  8595
977  8755
976  8410
975  8300
974  7970
973  7975
972  7660
971  7865
970  7485
969  7815
968  7375
967  7320
966  7425
965  7985
964  7830
963  7675
962  7970
961  7730
960  7135
959  7680
958  7855
957  7745
956  7825
955  7580
954  7765
953  7860
952  7880
951  7365
950  7700
949  7695
948  7990
947  8435
946  8155
945  7965
944  8070
943  8470
942  8295
941  8355
940  8395
939  7870
938  8710
937  7880
936  8290
935  8360
934  8515
933  8425
932  8550
931  9085
930  8775
929  8655
928  8990
927  8955
926  8835
925  9140
924  9045
923  8520
922  8935
921  9160
920  9015
919  9210
918  9680
917  9550
916  9435
915  10015
914  9765
913  10130
912  10330
911  10880
910  11055
909  11875
908  11690
907  11525
906  11615
905  11550
904  11195
903  10825
902  10055
901  10295
900  9380
899  9470
898  9415
897  9415
896  9645
895  10430
894  9920
893  9800
892  9270
891  9115
890  8165
889  8365
888  8055
887  7460
886  7435
885  7085
884  6855
883  7415
882  7090
881  6630
880  6560
879  6720
878  6805
877  6740
876  6750
875  6845
874  6715
873  6515
872  6945
871  6815
870  6925
869  6935
868  6935
867  7035
866  7175
865  7005
864  6810
863  6965
862  7250
861  7295
860  7335
859  7065
858  7295
857  7385
856  7370
855  7440
854  7625
853  7425
852  7225
851  7590
850  7410
849  7475
848  7555
847  7620
846  7805
845  7855
844  7450
843  7780
842  7685
841  7870
840  7985
839  8010
838  8005
837  7735
836  7865
835  8020
834  8315
833  7925
832  8275
831  8300
830  8125
829  8610
828  8715
827  8780
826  9010
825  9485
824  8890
823  9245
822  9100
821  8980
820  8805
819  8805
818  8670
817  8915
816  9165
815  8995
814  8915
813  9245
812  8995
811  9810
810  10025
809  9880
808  9135
807  9070
806  8925
805  8880
804  8795
803  9435
802  11760
801  16465
800  19865
799  16420
798  11260
797  10020
796  9125
795  9035
794  8580
793  8265
792  8065
791  8315
790  8765
789  8285
788  8605
787  10850
786  16500
785  22855
784  20320
783  12430
782  9285
781  8225
780  7505
779  6945
778  6640
777  6365
776  7290
775  7630
774  7770
773  7045
772  6925
771  6270
770  6410
769  6240
768  6345
767  6235
766  6010
765  5835
764  5985
763  5955
762  6050
761  6110
760  6040
759  5800
758  6250
757  6015
756  6215
755  6050
754  5895
753  5915
752  6190
751  6100
750  5980
749  5690
748  5785
747  6045
746  6030
745  5765
744  5980
743  6115
742  6040
741  5880
740  5935
739  6090
738  5950
737  6025
736  6055
735  6215
734  5710
733  6140
732  6120
731  6075
730  6000
729  5840
728  6195
727  6330
726  6245
725  6005
724  5805
723  6305
722  6315
721  6215
720  5900
719  6190
718  6045
717  6140
716  6740
715  6135
714  6030
713  6165
712  6280
711  6085
710  6090
709  6000
708  5980
707  6100
706  5835
705  5740
704  6075
703  6005
702  6045
701  6200
700  5765
699  5680
698  5795
697  6075
696  5720
695  6185
694  5615
693  6000
692  5860
691  5970
690  5620
689  5730
688  5955
687  6150
686  5955
685  5805
684  5730
683  5860
682  5940
681  5845
680  5690
679  5730
678  6120
677  5830
676  5495
675  5785
674  6085
673  5835
672  6060
671  6370
670  5635
669  6160
668  6045
667  5860
666  5930
665  5770
664  6090
663  6260
662  6210
661  5880
660  6130
659  5975
658  6060
657  5970
656  5805
655  5770
654  5895
653  5935
652  6440
651  5885
650  5890
649  5850
648  6315
647  6055
646  5945
645  5920
644  6025
643  6280
642  6040
641  6115
640  5780
639  5875
638  5930
637  6140
636  5950
635  6080
634  5745
633  5845
632  6005
631  5930
630  6295
629  5800
628  6345
627  5740
626  5945
625  5940
624  6130
623  6190
622  6010
621  5955
620  5990
619  5920
618  6180
617  6395
616  6070
615  5865
614  6190
613  5915
612  6090
611  6075
610  6135
609  6045
608  5890
607  6100
606  6050
605  6135
604  6000
603  5885
602  5805
601  5955
600  5890
599  5865
598  6170
597  6245
596  6050
595  6255
594  5940
593  6140
592  5955
591  5855
590  5780
589  6385
588  5925
587  5950
586  6055
585  5995
584  6065
583  6060
582  6030
581  5900
580  5850
579  5765
578  5820
577  5830
576  5765
575  5915
574  5505
573  5725
572  5335
571  5450
570  5390
569  5600
568  5735
567  5770
566  5930
565  5765
564  5985
563  6170
562  6620
561  6195
560  6685
559  6350
558  5950
557  5850
556  5625
555  5290
554  5450
553  5090
552  5140
551  4935
550  4915
549  4670
548  4665
547  4175
546  3585
545  4080
544  3735
543  3835
542  3725
541  3855
540  4490
539  6320
538  11295
537  15935
536  14110
535  7180
534  4160
533  3475
532  3300
531  3670
530  3105
529  3450
528  3580
527  4215
526  3910
525  3750
524  3550
523  2935
522  3115
521  2925
520  2945
519  2850
518  2760
517  2990
516  2910
515  2860
514  2880
513  2975
512  2835
511  2730
510  2985
509  2875
508  2810
507  2965
506  2820
505  2790
504  2980
503  2915
502  2845
501  2670
500  2700
499  2985
498  2860
497  2925
496  2860
495  2960
494  2990
493  2690
492  2835
491  2585
490  2850
489  2635
488  2680
487  2820
486  2795
485  2955
484  2605
483  2600
482  2600
481  2630
480  2815
479  2650
478  2620
477  2685
476  2720
475  2775
474  2750
473  2600
472  2740
471  2615
470  2650
469  2730
468  2830
467  2520
466  2885
465  2650
464  2645
463  2675
462  2790
461  2710
460  2790
459  2705
458  2665
457  2690
456  2540
455  2560
454  2600
453  2845
452  2630
451  2810
450  2430
449  2570
448  2545
447  2775
446  2675
445  2595
444  2505
443  2505
442  2540
441  2565
440  2510
439  2540
438  2630
437  2660
436  2590
435  2530
434  2445
433  2615
432  2550
431  2670
430  2450
429  2660
428  2430
427  2555
426  2230
425  2540
424  2520
423  2730
422  2525
421  2430
420  2425
419  2490
418  2505
417  2605
416  2555
415  2355
414  2515
413  2860
412  2520
411  2710
410  2615
409  2590
408  2550
407  2670
406  2640
405  2585
404  2675
403  2730
402  2750
401  2580
400  2505
399  2700
398  2470
397  2580
396  2360
395  2545
394  2370
393  2385
392  2495
391  2550
390  2395
389  2505
388  2610
387  2435
386  2210
385  2335
384  2485
383  2420
382  2575
381  2215
380  2370
379  2400
378  2430
377  2500
376  2265
375  2340
374  2305
373  2480
372  2430
371  2135
370  2370
369  2345
368  2375
367  2240
366  2340
365  2435
364  2325
363  2520
362  2485
361  2305
360  2290
359  2460
358  2375
357  2140
356  2325
355  2450
354  2330
353  2270
352  2390
351  2510
350  2625
349  2460
348  2565
347  2545
346  2275
345  2570
344  2295
343  2520
342  2435
341  2615
340  2345
339  2505
338  2475
337  2320
336  2335
335  2365
334  2425
333  2320
332  2385
331  2340
330  2485
329  2510
328  2375
327  2395
326  2565
325  2325
324  2230
323  2420
322  2525
321  2415
320  2710
319  2225
318  2750
317  2570
316  2670
315  2535
314  2500
313  2505
312  2515
311  2485
310  2300
309  2790
308  2585
307  2390
306  2490
305  2300
304  2570
303  2345
302  2760
301  2340
300  2475
299  2455
298  2545
297  2830
296  2550
295  2650
294  2635
293  2800
292  2995
291  3545
290  3965
289  3755
288  3310
287  2675
286  2560
285  2235
284  2445
283  2340
282  2330
281  2565
280  2440
279  2480
278  2580
277  2470
276  2750
275  3090
274  3305
273  3460
272  3120
271  2680
270  2500
269  2295
268  2160
267  2435
266  2310
265  2270
264  2365
263  2510
262  2105
261  2435
260  2255
259  2265
258  2630
257  2510
256  2385
255  2450
254  2510
253  2150
252  2385
251  2300
250  2355
249  2160
248  2250
247  2470
246  2400
245  2680
244  2200
243  2045
242  2270
241  2420
240  2330
239  2400
238  2325
237  2355
236  2180
235  2440
234  2395
233  2460
232  2655
231  2395
230  2445
229  2420
228  2590
227  2425
226  2510
225  2515
224  2565
223  2605
222  2265
221  2425
220  2645
219  2290
218  2445
217  2280
216  2405
215  2270
214  2480
213  2400
212  2225
211  2360
210  2075
209  2475
208  2345
207  2450
206  2590
205  2920
204  3360
203  3840
202  3895
201  2810
200  2230
199  2485
198  2285
197  2395
196  2355
195  2520
194  2460
193  2125
192  2315
191  2380
190  2100
189  2135
188  2185
187  2130
186  2290
185  2535
184  2745
183  3135
182  2805
181  2475
180  2230
179  2210
178  1990
177  2170
176  2205
175  2060
174  2105
173  1910
172  2075
171  1855
170  1920
169  1535
168  1705
167  1725
166  1720
165  1730
164  1830
163  1920
162  1945
161  2160
160  2825
159  3530
158  3225
157  2710
156  2390
155  1845
154  1800
153  1680
152  1825
151  1570
150  1790
149  1840
148  1795
147  1900
146  1810
145  1620
144  1600
143  1680
142  1570
141  1670
140  1570
139  1560
138  1515
137  1695
136  1725
135  1660
134  1605
133  1645
132  1730
131  1730
130  1850
129  1755
128  1745
127  1695
126  1605
125  1550
124  1625
123  1575
122  1740
121  1400
120  1720
119  1535
118  1460
117  7185
116  1430
115  1425
114  1435
113  1410
112  1280
111  1525
110  1775
109  2325
108  3165
107  3485
106  2590
105  1640
104  1370
103  1165
102  1340
101  1275
100  1305
99  1500
98  2095
97  2920
96  3020
95  3045
94  3275
93  2495
92  1505
91  1280
90  1115
89  1085
88  1270
87  1265
86  1235
85  1315
84  1230
83  1215
82  1045
81  1015
80  1015
79  1085
78  1070
77  1005
76  1130
75  1030
74  1165
73  1110
72  965
71  1080
70  1105
69  1055
68  1070
67  1145
66  995
65  1170
64  975
63  1110
62  1015
61  945
60  1055
59  1190
58  1040
57  980
56  1005
55  1085
54  990
53  940
52  1245
51  1160
50  1100
49  1165
48  1070
47  1020
46  1030
45  1060
44  990
43  1025
42  990
41  1060
40  965
39  1010
38  995
37  1000
36  1075
35  1015
34  1100
33  1100
32  1085
31  1180
30  1380
29  1285
28  1180
27  1210
26  1000
25  1075
24  990
23  1155
22  1060
21  1035
20  1185
19  1210
18  1075
17  1045
16  910
15  925
14  895
13  970
12  995
11  840
10  945
9  1000
8  870
7  830
6  890
5  825
4  805
3  850
2  800
1  765
-2.2737368e-013  755
-1  855
-2  715
-3  770
-4  770

