# Created by:        SpecsLab Prodigy, Version 4.60.2-r85849 
#
# XY-Serializer Export Settings:
#   Comment Prefix:           #
#   Output meta data:         yes
#   Energy Axis:              Binding Energy
#   Count Rate:               Counts per Second
#   Separate Scan Data:       no
#   Separate Channel Data:    no
#   External Channel Data:    yes
#   Transmission Function:    no
#   ErrorBar:                 no
#   Operation Results:        yes
#   Time Zone Format:         UTC
#
# Group:             Spectrum Group
#
# Region:            C1s
# Acquisition Date:  01/11/22 09:53:05 UTC
# Analysis Method:   XPS
# Analyzer:          Phoibos 100 R6
# Analyzer Lens:     LargeArea:1.5kV
# Analyzer Slit:     1:0.2x20\B:open
# Scan Mode:         FixedAnalyzerTransmission
# Curves/Scan:       1
# Values/Curve:      131
# Dwell Time:        0.8
# Excitation Energy: 1486.61
# Binding Energy:    295
# Pass Energy:       30
# Bias Voltage:      90
# Detector Voltage:  2600
# Eff. Workfunction: 4.309
# Source:            X-Ray Dummy
# Comment:           
#
# Cycle: 0
# Number of Scans: 2
#
# Cycle: 0, Curve: 0
# Acquisition Date: 01/11/22 09:53:05 UTC
#
# ColumnLabels: energy counts/s
#
295  679.375
294.9  661.875
294.8  686.25
294.7  693.75
294.6  665
294.5  676.25
294.4  684.375
294.3  690
294.2  679.375
294.1  698.75
294  671.875
293.9  711.875
293.8  714.375
293.7  673.125
293.6  661.875
293.5  700.625
293.4  668.125
293.3  675.625
293.2  691.875
293.1  695.625
293  693.125
292.9  708.125
292.8  661.875
292.7  655
292.6  713.125
292.5  662.5
292.4  706.25
292.3  657.5
292.2  735
292.1  625
292  649.375
291.9  694.375
291.8  716.875
291.7  689.375
291.6  728.125
291.5  669.375
291.4  673.75
291.3  675
291.2  697.5
291.1  702.5
291  691.25
290.9  714.375
290.8  693.125
290.7  674.375
290.6  681.25
290.5  686.25
290.4  681.25
290.3  705.625
290.2  721.875
290.1  718.125
290  726.25
289.9  707.5
289.8  699.375
289.7  711.875
289.6  726.25
289.5  731.875
289.4  719.375
289.3  715
289.2  744.375
289.1  712.5
289  720.625
288.9  766.875
288.8  661.875
288.7  724.375
288.6  741.875
288.5  750.625
288.4  750.625
288.3  791.25
288.2  699.375
288.1  695
288  705
287.9  699.375
287.8  688.75
287.7  701.25
287.6  736.875
287.5  725.625
287.4  681.875
287.3  716.875
287.2  697.5
287.1  700
287  644.375
286.9  677.5
286.8  668.125
286.7  686.875
286.6  675
286.5  643.75
286.4  687.5
286.3  647.5
286.2  698.125
286.1  720.625
286  665.625
285.9  677.5
285.8  713.75
285.7  708.125
285.6  701.25
285.5  634.375
285.4  651.25
285.3  706.25
285.2  698.125
285.1  652.5
285  673.75
284.9  715.625
284.8  713.75
284.7  678.75
284.6  671.875
284.5  721.25
284.4  677.5
284.3  692.5
284.2  678.125
284.1  703.125
284  696.875
283.9  698.125
283.8  699.375
283.7  725.625
283.6  680.625
283.5  710
283.4  689.375
283.3  692.5
283.2  714.375
283.1  728.75
283  718.125
282.9  734.375
282.8  669.375
282.7  681.25
282.6  709.375
282.5  700
282.4  720.625
282.3  703.125
282.2  654.375
282.1  691.875
282  707.5

# Region:            N1s
# Acquisition Date:  01/11/22 09:54:52 UTC
# Analysis Method:   XPS
# Analyzer:          Phoibos 100 R6
# Analyzer Lens:     LargeArea:1.5kV
# Analyzer Slit:     1:0.2x20\B:open
# Scan Mode:         FixedAnalyzerTransmission
# Curves/Scan:       1
# Values/Curve:      131
# Dwell Time:        0.8
# Excitation Energy: 1486.61
# Binding Energy:    408
# Pass Energy:       30
# Bias Voltage:      90
# Detector Voltage:  2600
# Eff. Workfunction: 4.309
# Source:            X-Ray Dummy
# Comment:           
#
# Cycle: 0
# Number of Scans: 2
#
# Cycle: 0, Curve: 0
# Acquisition Date: 01/11/22 09:54:52 UTC
#
# ColumnLabels: energy counts/s
#
408  757.5
407.9  719.375
407.8  727.5
407.7  730
407.6  745.625
407.5  738.125
407.4  743.75
407.3  716.25
407.2  717.5
407.1  731.25
407  755
406.9  717.5
406.8  730
406.7  743.125
406.6  732.5
406.5  719.375
406.4  719.375
406.3  707.5
406.2  747.5
406.1  756.875
406  756.25
405.9  748.75
405.8  715
405.7  723.75
405.6  741.875
405.5  765
405.4  691.25
405.3  721.875
405.2  717.5
405.1  762.5
405  731.25
404.9  748.125
404.8  725.625
404.7  763.75
404.6  745.625
404.5  740.625
404.4  740.625
404.3  779.375
404.2  695
404.1  746.875
404  705.625
403.9  802.5
403.8  764.375
403.7  713.125
403.6  740
403.5  759.375
403.4  750.625
403.3  743.125
403.2  726.875
403.1  741.25
403  770.625
402.9  748.75
402.8  748.75
402.7  723.125
402.6  744.375
402.5  747.5
402.4  771.25
402.3  760
402.2  742.5
402.1  800
402  730.625
401.9  761.25
401.8  757.5
401.7  749.375
401.6  798.125
401.5  808.125
401.4  792.5
401.3  743.75
401.2  740.625
401.1  750
401  726.875
400.9  758.75
400.8  756.25
400.7  758.125
400.6  763.75
400.5  760
400.4  706.25
400.3  748.125
400.2  711.25
400.1  760
400  741.875
399.9  709.375
399.8  736.875
399.7  788.75
399.6  768.125
399.5  679.375
399.4  734.375
399.3  735
399.2  766.25
399.1  761.25
399  760
398.9  727.5
398.8  726.875
398.7  768.75
398.6  724.375
398.5  748.125
398.4  758.75
398.3  716.25
398.2  727.5
398.1  733.125
398  728.125
397.9  736.875
397.8  748.75
397.7  771.875
397.6  751.875
397.5  725.625
397.4  726.25
397.3  754.375
397.2  703.125
397.1  711.25
397  743.75
396.9  731.875
396.8  727.5
396.7  702.5
396.6  751.25
396.5  740.625
396.4  727.5
396.3  771.875
396.2  726.875
396.1  731.875
396  785
395.9  748.125
395.8  727.5
395.7  706.25
395.6  734.375
395.5  719.375
395.4  733.75
395.3  711.875
395.2  734.375
395.1  727.5
395  745

# Region:            Si2p
# Acquisition Date:  01/11/22 09:56:47 UTC
# Analysis Method:   XPS
# Analyzer:          Phoibos 100 R6
# Analyzer Lens:     LargeArea:1.5kV
# Analyzer Slit:     1:0.2x20\B:open
# Scan Mode:         FixedAnalyzerTransmission
# Curves/Scan:       1
# Values/Curve:      141
# Dwell Time:        0.8
# Excitation Energy: 1486.61
# Binding Energy:    112
# Pass Energy:       30
# Bias Voltage:      90
# Detector Voltage:  2600
# Eff. Workfunction: 4.309
# Source:            X-Ray Dummy
# Comment:           
#
# Cycle: 0
# Number of Scans: 2
#
# Cycle: 0, Curve: 0
# Acquisition Date: 01/11/22 09:56:47 UTC
#
# ColumnLabels: energy counts/s
#
112  427.5
111.9  406.875
111.8  430
111.7  418.125
111.6  378.125
111.5  440.625
111.4  394.375
111.3  411.25
111.2  431.25
111.1  441.875
111  433.125
110.9  432.5
110.8  432.5
110.7  451.25
110.6  448.125
110.5  481.25
110.4  534.375
110.3  546.875
110.2  543.75
110.1  516.25
110  555.625
109.9  619.375
109.8  653.75
109.7  683.125
109.6  694.375
109.5  783.125
109.4  841.25
109.3  878.75
109.2  1005
109.1  1008.75
109  1143.125
108.9  1223.125
108.8  1335.625
108.7  1471.875
108.6  1560.625
108.5  1648.125
108.4  1692.5
108.3  1788.75
108.2  1836.25
108.1  1971.875
108  1904.375
107.9  2000.625
107.8  1977.5
107.7  1941.875
107.6  2014.375
107.5  1924.375
107.4  1880
107.3  1756.875
107.2  1706.25
107.1  1678.125
107  1513.75
106.9  1482.5
106.8  1353.75
106.7  1191.25
106.6  1156.25
106.5  1038.75
106.4  1000.625
106.3  943.125
106.2  801.25
106.1  753.75
106  693.75
105.9  687.5
105.8  611.875
105.7  623.75
105.6  575.625
105.5  544.375
105.4  520
105.3  491.875
105.2  476.25
105.1  475.625
105  449.375
104.9  458.75
104.8  420.625
104.7  425.625
104.6  428.125
104.5  430.625
104.4  404.375
104.3  543.75
104.2  410
104.1  421.875
104  385.625
103.9  389.375
103.8  395
103.7  384.375
103.6  371.875
103.5  405
103.4  380
103.3  395
103.2  407.5
103.1  378.75
103  390
102.9  396.25
102.8  370
102.7  406.25
102.6  375.625
102.5  377.5
102.4  367.5
102.3  400
102.2  394.375
102.1  374.375
102  366.25
101.9  369.375
101.8  398.125
101.7  417.5
101.6  411.875
101.5  376.875
101.4  388.75
101.3  408.75
101.2  344.375
101.1  375
101  386.25
100.9  373.75
100.8  388.125
100.7  368.125
100.6  396.25
100.5  390.625
100.4  348.125
100.3  380.625
100.2  378.75
100.1  381.875
100  386.875
99.9  403.125
99.8  385.625
99.7  406.875
99.6  423.75
99.5  417.5
99.4  366.25
99.3  422.5
99.2  433.75
99.1  437.5
99  467.5
98.9  400.625
98.8  435.625
98.7  440.625
98.6  440.625
98.5  453.125
98.4  472.5
98.3  480.625
98.2  455
98.1  451.875
98  488.75

# Region:            Ba3d
# Acquisition Date:  01/11/22 09:44:44 UTC
# Analysis Method:   XPS
# Analyzer:          Phoibos 100 R6
# Analyzer Lens:     LargeArea:1.5kV
# Analyzer Slit:     1:0.2x20\B:open
# Scan Mode:         FixedAnalyzerTransmission
# Curves/Scan:       1
# Values/Curve:      111
# Dwell Time:        0.8
# Excitation Energy: 1486.61
# Binding Energy:    786
# Pass Energy:       30
# Bias Voltage:      90
# Detector Voltage:  2600
# Eff. Workfunction: 4.309
# Source:            X-Ray Dummy
# Comment:           
#
# Cycle: 0
# Number of Scans: 1
#
# Cycle: 0, Curve: 0
# Acquisition Date: 01/11/22 09:44:44 UTC
#
# ColumnLabels: energy counts/s
#
786  2240
785.9  2235
785.8  2145
785.7  2096.25
785.6  2085
785.5  2167.5
785.4  2125
785.3  2151.25
785.2  2271.25
785.1  2116.25
785  2130
784.9  2163.75
784.8  2112.5
784.7  2186.25
784.6  2252.5
784.5  2165
784.4  2251.25
784.3  2215
784.2  2160
784.1  2232.5
784  2195
783.9  2243.75
783.8  2161.25
783.7  2242.5
783.6  2210
783.5  2206.25
783.4  2186.25
783.3  2146.25
783.2  2142.5
783.1  2175
783  2283.75
782.9  2168.75
782.8  2223.75
782.7  2126.25
782.6  2147.5
782.5  2147.5
782.4  2311.25
782.3  2202.5
782.2  2207.5
782.1  2278.75
782  2158.75
781.9  2148.75
781.8  2178.75
781.7  2146.25
781.6  2185
781.5  2210
781.4  2280
781.3  2091.25
781.2  2110
781.1  2227.5
781  2245
780.9  2066.25
780.8  2298.75
780.7  2202.5
780.6  2177.5
780.5  2133.75
780.4  2223.75
780.3  2206.25
780.2  2182.5
780.1  2256.25
780  2210
779.9  2112.5
779.8  2117.5
779.7  2186.25
779.6  2132.5
779.5  2148.75
779.4  2250
779.3  2150
779.2  2137.5
779.1  2156.25
779  2148.75
778.9  2135
778.8  2137.5
778.7  2215
778.6  2183.75
778.5  2142.5
778.4  2107.5
778.3  2131.25
778.2  2151.25
778.1  2212.5
778  2122.5
777.9  2146.25
777.8  2135
777.7  2235
777.6  2160
777.5  2175
777.4  2087.5
777.3  2132.5
777.2  2187.5
777.1  2206.25
777  2228.75
776.9  2122.5
776.8  2176.25
776.7  2073.75
776.6  2245
776.5  2273.75
776.4  2177.5
776.3  2136.25
776.2  2177.5
776.1  2147.5
776  2262.5
775.9  2240
775.8  2182.5
775.7  2147.5
775.6  2205
775.5  2162.5
775.4  2105
775.3  2091.25
775.2  2048.75
775.1  2181.25
775  2115

# Region:            O1s
# Acquisition Date:  01/11/22 09:47:03 UTC
# Analysis Method:   XPS
# Analyzer:          Phoibos 100 R6
# Analyzer Lens:     LargeArea:1.5kV
# Analyzer Slit:     1:0.2x20\B:open
# Scan Mode:         FixedAnalyzerTransmission
# Curves/Scan:       1
# Values/Curve:      171
# Dwell Time:        0.8
# Excitation Energy: 1486.61
# Binding Energy:    545
# Pass Energy:       30
# Bias Voltage:      90
# Detector Voltage:  2600
# Eff. Workfunction: 4.309
# Source:            X-Ray Dummy
# Comment:           
#
# Cycle: 0
# Number of Scans: 1
#
# Cycle: 0, Curve: 0
# Acquisition Date: 01/11/22 09:47:03 UTC
#
# ColumnLabels: energy counts/s
#
545  1186.25
544.9  1200
544.8  1225
544.7  1198.75
544.6  1253.75
544.5  1162.5
544.4  1176.25
544.3  1260
544.2  1212.5
544.1  1200
544  1175
543.9  1200
543.8  1196.25
543.7  1232.5
543.6  1172.5
543.5  1197.5
543.4  1188.75
543.3  1170
543.2  1176.25
543.1  1106.25
543  1181.25
542.9  1205
542.8  1168.75
542.7  1233.75
542.6  1198.75
542.5  1163.75
542.4  1181.25
542.3  1227.5
542.2  1161.25
542.1  1230
542  1202.5
541.9  1212.5
541.8  1162.5
541.7  1177.5
541.6  1230
541.5  1252.5
541.4  1203.75
541.3  1267.5
541.2  1337.5
541.1  1310
541  1306.25
540.9  1363.75
540.8  1405
540.7  1498.75
540.6  1381.25
540.5  1460
540.4  1506.25
540.3  1453.75
540.2  1588.75
540.1  1683.75
540  1743.75
539.9  1718.75
539.8  1703.75
539.7  1903.75
539.6  1895
539.5  2048.75
539.4  2190
539.3  2316.25
539.2  2586.25
539.1  2757.5
539  2937.5
538.9  3262.5
538.8  3582.5
538.7  4130
538.6  4557.5
538.5  5066.25
538.4  5313.75
538.3  5915
538.2  6566.25
538.1  7288.75
538  7870
537.9  8703.75
537.8  9407.5
537.7  9670
537.6  10583.75
537.5  10852.5
537.4  11186.25
537.3  11555
537.2  11946.25
537.1  11827.5
537  11915
536.9  11595
536.8  11400
536.7  11006.25
536.6  10535
536.5  9786.25
536.4  9145
536.3  8507.5
536.2  7768.75
536.1  7031.25
536  6345
535.9  5736.25
535.8  4866.25
535.7  4700
535.6  4067.5
535.5  3603.75
535.4  3137.5
535.3  2840
535.2  2630
535.1  2328.75
535  2195
534.9  1933.75
534.8  1900
534.7  1812.5
534.6  1628.75
534.5  1623.75
534.4  1532.5
534.3  1415
534.2  1437.5
534.1  1355
534  1288.75
533.9  1318.75
533.8  1232.5
533.7  1290
533.6  1221.25
533.5  1270
533.4  1188.75
533.3  1217.5
533.2  1195
533.1  1151.25
533  1143.75
532.9  1126.25
532.8  1088.75
532.7  1147.5
532.6  1101.25
532.5  1141.25
532.4  1090
532.3  1087.5
532.2  1046.25
532.1  1182.5
532  1102.5
531.9  1120
531.8  1045
531.7  1077.5
531.6  1033.75
531.5  1018.75
531.4  990
531.3  1058.75
531.2  1070
531.1  1085
531  1070
530.9  1042.5
530.8  1011.25
530.7  1150
530.6  1046.25
530.5  1040
530.4  1048.75
530.3  1008.75
530.2  1086.25
530.1  1002.5
530  1056.25
529.9  1022.5
529.8  1002.5
529.7  1018.75
529.6  1051.25
529.5  1056.25
529.4  1008.75
529.3  1032.5
529.2  1111.25
529.1  1113.75
529  1135
528.9  1105
528.8  1220
528.7  1223.75
528.6  1290
528.5  1250
528.4  1391.25
528.3  1412.5
528.2  1486.25
528.1  1460
528  1607.5

# Region:            overview
# Acquisition Date:  01/11/22 09:51:18 UTC
# Analysis Method:   XPS
# Analyzer:          Phoibos 100 R6
# Analyzer Lens:     LargeArea:1.5kV
# Analyzer Slit:     1:0.2x20\B:open
# Scan Mode:         FixedAnalyzerTransmission
# Curves/Scan:       1
# Values/Curve:      1205
# Dwell Time:        0.2
# Excitation Energy: 1486.61
# Binding Energy:    1200
# Pass Energy:       50
# Bias Voltage:      90
# Detector Voltage:  2600
# Eff. Workfunction: 4.309
# Source:            X-Ray Dummy
# Comment:           
#
# Cycle: 0
# Number of Scans: 1
#
# Cycle: 0, Curve: 0
# Acquisition Date: 01/11/22 09:51:18 UTC
#
# ColumnLabels: energy counts/s
#
1200  8530
1199  8620
1198  8560
1197  8520
1196  8690
1195  8935
1194  8575
1193  8700
1192  8490
1191  8460
1190  8815
1189  8470
1188  8465
1187  8685
1186  8625
1185  8530
1184  8675
1183  8670
1182  8865
1181  8440
1180  8650
1179  8610
1178  8310
1177  8760
1176  8600
1175  8445
1174  8545
1173  8355
1172  8615
1171  8250
1170  8635
1169  8535
1168  8430
1167  8640
1166  8515
1165  8210
1164  8440
1163  8425
1162  8265
1161  8090
1160  8640
1159  8195
1158  8680
1157  8360
1156  8435
1155  8740
1154  8015
1153  8735
1152  8415
1151  8445
1150  8590
1149  8805
1148  8470
1147  8520
1146  8665
1145  8385
1144  8200
1143  8440
1142  8390
1141  8610
1140  8115
1139  8485
1138  8465
1137  8390
1136  8380
1135  8315
1134  8245
1133  8655
1132  8470
1131  8420
1130  8560
1129  8425
1128  8560
1127  8310
1126  8405
1125  8380
1124  8160
1123  8285
1122  8250
1121  8445
1120  8375
1119  8450
1118  7940
1117  8775
1116  8385
1115  8245
1114  8470
1113  8515
1112  8310
1111  8315
1110  8305
1109  8260
1108  8180
1107  8405
1106  8450
1105  8295
1104  8020
1103  8365
1102  8535
1101  8500
1100  8190
1099  8380
1098  8480
1097  7965
1096  8480
1095  8600
1094  8540
1093  8550
1092  8770
1091  8390
1090  7965
1089  8400
1088  8690
1087  8865
1086  8255
1085  9005
1084  8795
1083  8340
1082  8275
1081  8530
1080  8420
1079  8440
1078  8095
1077  8575
1076  8625
1075  8440
1074  8715
1073  8455
1072  8435
1071  8415
1070  8540
1069  8645
1068  8450
1067  8605
1066  8715
1065  8420
1064  8775
1063  8705
1062  8580
1061  8605
1060  8670
1059  8345
1058  8545
1057  8465
1056  8860
1055  8615
1054  8570
1053  8300
1052  8870
1051  8550
1050  8225
1049  9055
1048  8440
1047  8505
1046  8520
1045  8535
1044  8840
1043  8875
1042  8560
1041  8670
1040  8565
1039  8560
1038  8380
1037  8495
1036  8500
1035  8660
1034  8820
1033  8725
1032  8710
1031  9200
1030  9005
1029  8765
1028  8925
1027  8745
1026  9295
1025  8515
1024  8930
1023  9035
1022  9130
1021  9365
1020  9005
1019  9135
1018  8395
1017  9060
1016  8860
1015  9075
1014  8740
1013  8535
1012  9030
1011  9200
1010  9670
1009  9555
1008  10275
1007  9785
1006  10210
1005  9880
1004  9915
1003  9000
1002  9075
1001  9395
1000  9300
999  8900
998  8850
997  8520
996  8490
995  8800
994  8260
993  8795
992  8745
991  8855
990  9145
989  9700
988  10765
987  10490
986  11680
985  12010
984  12330
983  11375
982  10930
981  9480
980  9055
979  8965
978  8280
977  7815
976  7320
975  7395
974  6800
973  6135
972  6605
971  6425
970  6500
969  5830
968  6190
967  5895
966  5885
965  5835
964  6070
963  5625
962  5870
961  5685
960  6090
959  5670
958  5695
957  5915
956  5925
955  6025
954  5760
953  5815
952  5910
951  5850
950  5795
949  5810
948  5895
947  5850
946  5905
945  5755
944  6010
943  6030
942  6235
941  5865
940  5755
939  5635
938  5715
937  5750
936  5750
935  5610
934  5980
933  5645
932  5935
931  5715
930  5975
929  5820
928  6010
927  5650
926  5830
925  6050
924  5850
923  5800
922  5890
921  6445
920  5765
919  5795
918  5925
917  5775
916  5730
915  5915
914  6215
913  5825
912  5770
911  6110
910  6155
909  5920
908  6110
907  6105
906  5885
905  5875
904  6545
903  5740
902  6050
901  5885
900  5750
899  6020
898  6005
897  6195
896  5535
895  5990
894  5835
893  5960
892  5950
891  5805
890  5995
889  6195
888  5750
887  5980
886  5825
885  5920
884  5815
883  5965
882  6185
881  5725
880  5805
879  5620
878  6035
877  5925
876  5880
875  6040
874  5695
873  5725
872  5900
871  6035
870  5715
869  6130
868  5730
867  5940
866  6030
865  5665
864  5765
863  6135
862  6055
861  6285
860  5930
859  5905
858  6230
857  5955
856  5720
855  5890
854  5775
853  6030
852  5970
851  6055
850  6215
849  6090
848  5930
847  5840
846  5715
845  5890
844  6060
843  5645
842  5875
841  5970
840  6045
839  5740
838  5955
837  6210
836  5615
835  5935
834  5770
833  5855
832  5690
831  6145
830  5835
829  5865
828  5740
827  5855
826  5745
825  5910
824  6025
823  5605
822  6040
821  5770
820  5905
819  6230
818  5745
817  5980
816  5860
815  5810
814  5755
813  6005
812  6055
811  5935
810  5905
809  5910
808  5800
807  5870
806  5950
805  5965
804  5930
803  5865
802  5885
801  6045
800  5795
799  6185
798  6025
797  5395
796  5940
795  6145
794  5915
793  5820
792  5565
791  5725
790  5950
789  5785
788  6020
787  5590
786  5660
785  6015
784  6115
783  5970
782  5690
781  6100
780  6105
779  6020
778  5805
777  5605
776  6160
775  5645
774  5695
773  6050
772  6220
771  6695
770  5975
769  5695
768  5780
767  6055
766  5865
765  6200
764  5885
763  5700
762  5770
761  5830
760  6075
759  6050
758  5975
757  6120
756  6060
755  5845
754  5700
753  5775
752  6300
751  5730
750  5950
749  6335
748  5585
747  6045
746  6120
745  6035
744  6120
743  5640
742  6150
741  5905
740  6040
739  5740
738  5830
737  5680
736  5915
735  6120
734  5795
733  6200
732  5840
731  6095
730  5915
729  5930
728  6155
727  6490
726  6145
725  6365
724  6450
723  5855
722  6310
721  6255
720  6085
719  5960
718  5960
717  5955
716  5900
715  6030
714  5835
713  5915
712  5755
711  5765
710  6195
709  5885
708  6200
707  5840
706  6060
705  6160
704  6145
703  6485
702  5940
701  6335
700  6180
699  6255
698  6305
697  5985
696  6040
695  6170
694  6220
693  6080
692  6375
691  6015
690  6080
689  6230
688  6035
687  6200
686  5895
685  5905
684  6165
683  6250
682  6240
681  6125
680  6325
679  6065
678  6520
677  6370
676  5795
675  6205
674  6380
673  6040
672  6270
671  5780
670  5875
669  6110
668  6125
667  6510
666  6540
665  6265
664  6175
663  6240
662  6110
661  5735
660  6265
659  6475
658  6230
657  6480
656  6345
655  6185
654  6460
653  6145
652  6205
651  6470
650  6355
649  6685
648  6450
647  6030
646  6275
645  6350
644  6300
643  6165
642  6330
641  6160
640  6455
639  6340
638  6365
637  6330
636  6605
635  6450
634  5815
633  6265
632  6575
631  6500
630  6280
629  6310
628  6245
627  6555
626  6230
625  6470
624  6465
623  6165
622  6475
621  6545
620  6265
619  6300
618  6310
617  6580
616  6115
615  6290
614  6400
613  6525
612  6430
611  6335
610  6555
609  6325
608  6615
607  6520
606  6885
605  6775
604  6290
603  6390
602  6200
601  6465
600  6405
599  6685
598  6495
597  6750
596  6630
595  6360
594  6690
593  6445
592  6635
591  6470
590  6775
589  6670
588  6465
587  6735
586  6885
585  6755
584  6455
583  6860
582  6620
581  6355
580  6370
579  6250
578  6770
577  6375
576  6245
575  6510
574  6630
573  6380
572  6255
571  6370
570  6325
569  6245
568  6320
567  6225
566  6965
565  7235
564  7440
563  7560
562  7200
561  7240
560  7770
559  7700
558  7205
557  6740
556  6655
555  6330
554  6320
553  5465
552  5460
551  5370
550  5015
549  5225
548  4950
547  4475
546  4160
545  3855
544  4150
543  4065
542  4045
541  4525
540  6680
539  12515
538  23580
537  28315
536  18695
535  7740
534  4365
533  3960
532  3540
531  3475
530  3675
529  4025
528  4930
527  5060
526  4600
525  4275
524  3565
523  2890
522  2935
521  2940
520  2815
519  3035
518  2765
517  2865
516  2785
515  2875
514  2580
513  2990
512  2870
511  2795
510  2850
509  2820
508  2935
507  2760
506  2785
505  2690
504  2755
503  2810
502  2775
501  2625
500  2635
499  2740
498  2800
497  2615
496  2810
495  2765
494  2570
493  2995
492  2625
491  2745
490  2840
489  2855
488  2610
487  2740
486  2590
485  2670
484  2725
483  2810
482  2590
481  2715
480  2795
479  2735
478  2825
477  2765
476  2825
475  2765
474  2590
473  2660
472  2680
471  2825
470  2765
469  2705
468  2775
467  3030
466  2770
465  2695
464  2760
463  2405
462  2550
461  2505
460  2640
459  2595
458  2370
457  2400
456  2435
455  2490
454  2575
453  2360
452  2695
451  2585
450  2565
449  2440
448  2480
447  2600
446  2480
445  2590
444  2555
443  2625
442  2505
441  2445
440  2455
439  2375
438  2625
437  2395
436  2510
435  2500
434  2365
433  2690
432  2420
431  2465
430  2495
429  2520
428  2475
427  2435
426  2550
425  2505
424  2375
423  2425
422  2635
421  2605
420  2390
419  2460
418  2305
417  2310
416  2615
415  2325
414  2525
413  2480
412  2575
411  2515
410  2545
409  2590
408  2345
407  2385
406  2400
405  2565
404  2520
403  2650
402  2500
401  2460
400  2490
399  2270
398  2475
397  2495
396  2500
395  2460
394  2570
393  2475
392  2345
391  2440
390  2345
389  2155
388  2405
387  2255
386  2305
385  2335
384  2280
383  2175
382  2210
381  2070
380  2275
379  2455
378  2240
377  2100
376  2275
375  2435
374  2285
373  2190
372  2450
371  2320
370  2280
369  2255
368  2240
367  2215
366  2515
365  2150
364  2370
363  2285
362  2415
361  2360
360  2420
359  2200
358  2190
357  2195
356  2355
355  2430
354  2315
353  2355
352  2370
351  2315
350  2380
349  2315
348  2375
347  2285
346  2135
345  2195
344  2155
343  2360
342  2380
341  2345
340  2415
339  2175
338  2240
337  2295
336  2285
335  2180
334  2170
333  2225
332  2255
331  2220
330  2140
329  2185
328  2180
327  2190
326  2225
325  2325
324  2310
323  2280
322  2235
321  2180
320  2120
319  2180
318  2155
317  2090
316  2080
315  2060
314  2025
313  2050
312  2370
311  2350
310  2190
309  2115
308  2155
307  2420
306  2380
305  2230
304  2220
303  1955
302  2295
301  2275
300  2095
299  2030
298  1940
297  2050
296  2070
295  2460
294  2215
293  2060
292  2285
291  2120
290  2540
289  2350
288  2075
287  2435
286  2235
285  2275
284  2215
283  2230
282  2005
281  2150
280  2055
279  2255
278  2270
277  2225
276  2205
275  2235
274  2130
273  2020
272  2040
271  2265
270  2190
269  2130
268  2160
267  2065
266  2160
265  2245
264  2185
263  2140
262  2175
261  2075
260  2090
259  1995
258  2225
257  2205
256  1975
255  2005
254  2115
253  1915
252  2080
251  2360
250  2315
249  2140
248  2255
247  2105
246  2100
245  2120
244  2220
243  2050
242  2330
241  2240
240  2115
239  2225
238  2235
237  2025
236  2040
235  2175
234  2215
233  2085
232  2035
231  2250
230  2165
229  2110
228  2350
227  2120
226  2180
225  2040
224  2080
223  2110
222  1920
221  1855
220  1900
219  1990
218  1985
217  2115
216  2150
215  1950
214  2165
213  2025
212  2020
211  2115
210  1965
209  2150
208  2000
207  1875
206  2140
205  1975
204  2115
203  1810
202  2130
201  1870
200  2075
199  2150
198  1960
197  1965
196  1880
195  1770
194  2165
193  1920
192  1990
191  2020
190  2115
189  1955
188  2085
187  1865
186  2140
185  2185
184  2370
183  2110
182  2300
181  2245
180  2090
179  2290
178  2135
177  1905
176  2180
175  1885
174  2075
173  1925
172  1920
171  1915
170  2010
169  1785
168  1740
167  1580
166  1650
165  1710
164  1735
163  1785
162  2210
161  3005
160  4350
159  5395
158  4615
157  3225
156  2390
155  2010
154  1815
153  1565
152  1740
151  1755
150  1975
149  1990
148  1990
147  1920
146  1685
145  1630
144  1570
143  1565
142  1635
141  1435
140  1490
139  1425
138  1620
137  1490
136  1535
135  1600
134  1725
133  1620
132  1835
131  1730
130  1670
129  1610
128  1715
127  1530
126  1550
125  1430
124  1660
123  1390
122  1440
121  1370
120  1235
119  1305
118  1270
117  1055
116  1285
115  1165
114  1120
113  1265
112  1250
111  1445
110  2340
109  3610
108  4860
107  3905
106  2150
105  1390
104  1080
103  1135
102  1085
101  955
100  1090
99  1195
98  1475
97  1205
96  1185
95  1315
94  1100
93  1130
92  1025
91  975
90  1180
89  1070
88  980
87  1095
86  1055
85  1065
84  1050
83  1080
82  1005
81  895
80  1020
79  950
78  1005
77  990
76  1040
75  990
74  955
73  960
72  1085
71  1030
70  1090
69  970
68  990
67  970
66  1020
65  1165
64  1010
63  935
62  1080
61  1040
60  905
59  1075
58  980
57  1165
56  1045
55  1090
54  895
53  1070
52  1080
51  1170
50  1010
49  1025
48  995
47  970
46  975
45  1015
44  1125
43  1050
42  950
41  1010
40  1035
39  1095
38  1000
37  1090
36  1040
35  1070
34  1190
33  1165
32  1200
31  1415
30  1560
29  1520
28  980
27  1060
26  870
25  1005
24  975
23  1080
22  955
21  870
20  965
19  960
18  1000
17  1050
16  950
15  885
14  940
13  940
12  905
11  855
10  760
9  905
8  795
7  775
6  825
5  830
4  740
3  755
2  755
1  705
-2.2737368e-013  735
-1  715
-2  770
-3  710
-4  780

